%OpenBCI Raw EEG Data
%
%Sample Rate = 250.0 Hz
%First Column = SampleIndex
%Other Columns = EEG data in microvolts followed by Accel Data (in G) interleaved with Aux Data
0, -15212.84, -31223.08, -187500.02, -28899.71, -54585.44, -50422.89, -56563.39, -64722.36, 0.01, 0.70, 0.63
1, -15215.44, -31226.71, -187500.02, -28907.87, -54590.36, -50428.08, -56569.83, -64729.20, 0.00, 0.00, 0.00
2, -15214.83, -31224.29, -187500.02, -28901.07, -54577.19, -50422.45, -56560.57, -64726.02, 0.00, 0.00, 0.00
3, -15200.84, -31208.71, -187500.02, -28881.11, -54562.30, -50411.95, -56548.61, -64704.54, 0.00, 0.00, 0.00
4, -15184.90, -31193.87, -187500.02, -28869.13, -54572.95, -50401.30, -56537.17, -64693.10, 0.00, 0.00, 0.00
5, -15198.43, -31215.73, -187500.02, -28886.41, -54584.12, -50411.79, -56547.03, -64710.46, 0.00, 0.00, 0.00
6, -15214.12, -31226.44, -187500.02, -28893.36, -54583.32, -50421.42, -56553.29, -64720.14, 0.00, 0.00, 0.00
7, -15210.81, -31222.05, -187500.02, -28889.88, -54576.39, -50424.06, -56548.04, -64704.39, 0.02, 0.72, 0.66
8, -15209.74, -31219.46, -187500.02, -28885.67, -54569.46, -50403.45, -56536.30, -64695.91, 0.00, 0.00, 0.00
9, -15215.93, -31229.01, -187500.02, -28897.72, -54577.79, -50422.54, -56545.87, -64707.98, 0.00, 0.00, 0.00
10, -15215.95, -31233.07, -187500.02, -28897.41, -54574.38, -50422.00, -56545.75, -64706.33, 0.00, 0.00, 0.00
11, -15226.54, -31238.37, -187500.02, -28898.12, -54579.79, -50408.75, -56549.84, -64715.27, 0.00, 0.00, 0.00
12, -15212.28, -31221.07, -187500.02, -28883.86, -54572.34, -50408.41, -56545.24, -64712.16, 0.00, 0.00, 0.00
13, -15213.25, -31225.14, -187500.02, -28890.93, -54571.96, -50413.44, -56546.92, -64707.98, 0.00, 0.00, 0.00
14, -15219.55, -31234.37, -187500.02, -28900.29, -54575.31, -50418.16, -56552.48, -64710.20, 0.00, 0.00, 0.00
15, -15227.48, -31236.52, -187500.02, -28904.56, -54609.49, -50432.08, -56564.37, -64723.48, 0.00, 0.00, 0.00
16, -15217.25, -31225.92, -187500.02, -28892.18, -54574.40, -50414.11, -56551.95, -64713.80, 0.00, 0.00, 0.00
17, -15218.18, -31225.97, -187500.02, -28899.38, -54554.84, -50410.45, -56541.86, -64702.51, 0.01, 0.71, 0.66
18, -15223.30, -31234.28, -187500.02, -28909.16, -54553.54, -50421.64, -56551.23, -64706.58, 0.00, 0.00, 0.00
19, -15231.77, -31243.47, -187500.02, -28912.12, -54562.24, -50429.51, -56561.33, -64720.59, 0.00, 0.00, 0.00
20, -15227.26, -31235.69, -187500.02, -28907.76, -54579.36, -50423.54, -56553.36, -64709.13, 0.00, 0.00, 0.00
21, -15230.50, -31244.83, -187500.02, -28919.07, -54591.43, -50433.22, -56562.79, -64723.18, 0.00, 0.00, 0.00
22, -15235.19, -31244.85, -187500.02, -28920.85, -54582.64, -50429.91, -56555.41, -64715.92, 0.00, 0.00, 0.00
23, -15228.62, -31233.97, -187500.02, -28908.16, -54571.45, -50428.04, -56548.10, -64705.37, 0.00, 0.00, 0.00
24, -15234.61, -31235.42, -187500.02, -28906.21, -54585.04, -50420.59, -56552.62, -64713.91, 0.00, 0.00, 0.00
25, -15240.36, -31244.54, -187500.02, -28916.88, -54577.66, -50429.16, -56563.59, -64721.87, 0.00, 0.00, 0.00
26, -15247.29, -31253.08, -187500.02, -28925.41, -54583.16, -50436.80, -56568.60, -64726.78, 0.00, 0.00, 0.00
27, -15238.03, -31236.18, -187500.02, -28917.70, -54576.54, -50431.25, -56565.02, -64721.02, 0.00, 0.69, 0.67
28, -15228.40, -31231.40, -187500.02, -28903.98, -54568.88, -50426.29, -56558.70, -64714.60, 0.00, 0.00, 0.00
29, -15233.43, -31239.04, -187500.02, -28910.57, -54574.44, -50433.18, -56565.29, -64719.21, 0.00, 0.00, 0.00
30, -15236.89, -31242.75, -187500.02, -28916.65, -54576.23, -50436.87, -56570.45, -64720.14, 0.00, 0.00, 0.00
31, -15222.34, -31229.03, -187500.02, -28905.23, -54567.67, -50422.70, -56557.73, -64711.23, 0.00, 0.00, 0.00
32, -15223.30, -31224.71, -187500.02, -28899.20, -54565.66, -50420.75, -56555.95, -64708.61, 0.00, 0.00, 0.00
33, -15218.48, -31219.35, -187500.02, -28892.11, -54559.27, -50415.50, -56548.39, -64702.64, 0.00, 0.00, 0.00
34, -15225.49, -31228.61, -187500.02, -28899.33, -54564.54, -50419.79, -56553.58, -64708.30, 0.00, 0.00, 0.00
35, -15228.85, -31232.70, -187500.02, -28901.18, -54566.66, -50420.95, -56554.76, -64709.39, 0.00, 0.00, 0.00
36, -15226.43, -31227.67, -187500.02, -28895.64, -54572.05, -50423.63, -56558.72, -64714.22, 0.00, 0.00, 0.00
37, -15216.11, -31215.91, -187500.02, -28881.89, -54561.97, -50416.68, -56554.56, -64711.50, 0.00, 0.68, 0.67
38, -15230.28, -31230.46, -187500.02, -28895.08, -54567.69, -50428.46, -56564.53, -64719.27, 0.00, 0.00, 0.00
39, -15235.75, -31232.58, -187500.02, -28901.81, -54560.85, -50430.54, -56563.14, -64720.26, 0.00, 0.00, 0.00
40, -15235.84, -31230.62, -187500.02, -28902.64, -54563.89, -50438.01, -56567.55, -64724.28, 0.00, 0.00, 0.00
41, -15221.58, -31223.22, -187500.02, -28888.06, -54577.46, -50420.10, -56552.77, -64714.80, 0.00, 0.00, 0.00
42, -15225.16, -31228.69, -187500.02, -28893.12, -54574.49, -50417.51, -56554.61, -64717.82, 0.00, 0.00, 0.00
43, -15230.50, -31234.53, -187500.02, -28897.81, -54566.69, -50412.23, -56548.05, -64709.21, 0.00, 0.00, 0.00
44, -15239.20, -31240.88, -187500.02, -28901.70, -54572.70, -50421.04, -56554.02, -64715.11, 0.00, 0.00, 0.00
45, -15232.20, -31229.61, -187500.02, -28892.33, -54561.52, -50415.01, -56545.53, -64702.17, 0.00, 0.00, 0.00
46, -15229.90, -31228.02, -187500.02, -28890.37, -54560.09, -50411.90, -56543.52, -64702.51, 0.00, 0.00, 0.00
47, -15229.61, -31230.01, -187500.02, -28896.29, -54560.16, -50415.90, -56550.29, -64708.77, 0.00, 0.69, 0.68
48, -15233.72, -31237.41, -187500.02, -28903.98, -54562.11, -50427.14, -56561.24, -64711.76, 0.00, 0.00, 0.00
49, -15231.80, -31234.44, -187500.02, -28900.09, -54563.96, -50424.55, -56557.15, -64713.44, 0.00, 0.00, 0.00
50, -15230.84, -31234.57, -187500.02, -28909.72, -54571.36, -50438.70, -56572.87, -64727.18, 0.00, 0.00, 0.00
51, -15233.25, -31235.40, -187500.02, -28929.33, -54586.60, -50448.69, -56584.96, -64743.28, 0.00, 0.00, 0.00
52, -15233.52, -31230.97, -187500.02, -28915.38, -54576.43, -50431.03, -56566.43, -64723.88, 0.00, 0.00, 0.00
53, -15251.42, -31242.78, -187500.02, -28901.23, -54573.84, -50424.26, -56558.72, -64717.48, 0.00, 0.00, 0.00
54, -15247.24, -31238.60, -187500.02, -28887.37, -54567.00, -50414.07, -56548.37, -64709.50, 0.00, 0.00, 0.00
55, -15236.22, -31231.26, -187500.02, -28889.79, -54566.44, -50415.34, -56548.28, -64708.97, 0.00, 0.00, 0.00
56, -15217.51, -31209.94, -187500.02, -28883.53, -54555.13, -50410.07, -56543.05, -64702.51, 0.00, 0.00, 0.00
57, -15220.58, -31208.22, -187500.02, -28882.41, -54559.29, -50411.88, -56544.48, -64705.04, 0.00, 0.69, 0.67
58, -15206.16, -31192.42, -187500.02, -28871.46, -54550.35, -50406.64, -56537.98, -64697.97, 0.00, 0.00, 0.00
59, -15210.94, -31199.66, -187500.02, -28881.67, -54556.83, -50404.21, -56546.45, -64705.41, 0.00, 0.00, 0.00
60, -15209.38, -31198.72, -187500.02, -28880.78, -54555.18, -50404.46, -56542.27, -64702.80, 0.00, 0.00, 0.00
61, -15209.04, -31197.60, -187500.02, -28882.61, -54559.82, -50411.09, -56548.35, -64708.95, 0.00, 0.00, 0.00
62, -15195.59, -31181.04, -187500.02, -28873.45, -54548.11, -50405.39, -56542.45, -64697.50, 0.00, 0.00, 0.00
63, -15195.45, -31182.34, -187500.02, -28875.57, -54546.77, -50405.55, -56539.56, -64696.32, 0.00, 0.00, 0.00
64, -15195.63, -31182.04, -187500.02, -28875.57, -54543.48, -50401.21, -56536.19, -64692.90, 0.00, 0.00, 0.00
65, -15201.17, -31186.79, -187500.02, -28879.03, -54545.43, -50404.37, -56540.95, -64704.12, 0.00, 0.00, 0.00
66, -15194.22, -31176.59, -187500.02, -28868.30, -54542.99, -50400.70, -56539.20, -64705.55, 0.00, 0.00, 0.00
67, -15194.58, -31174.71, -187500.02, -28867.84, -54562.98, -50403.29, -56541.55, -64700.90, 0.00, 0.00, 0.00
68, -15197.22, -31177.80, -187500.02, -28871.66, -54561.55, -50404.79, -56546.36, -64703.80, -0.00, 0.69, 0.66
69, -15208.69, -31188.44, -187500.02, -28877.27, -54569.08, -50413.71, -56552.79, -64715.16, 0.00, 0.00, 0.00
70, -15208.62, -31188.37, -187500.02, -28875.26, -54573.10, -50410.31, -56551.57, -64720.48, 0.00, 0.00, 0.00
71, -15210.12, -31190.38, -187500.02, -28879.86, -54573.05, -50410.83, -56549.66, -64719.34, 0.00, 0.00, 0.00
72, -15212.19, -31191.19, -187500.02, -28885.27, -54567.51, -50411.14, -56546.85, -64713.68, 0.00, 0.00, 0.00
73, -15203.50, -31184.35, -187500.02, -28879.10, -54556.74, -50408.05, -56543.81, -64702.87, 0.00, 0.00, 0.00
74, -15201.58, -31181.89, -187500.02, -28874.74, -54561.72, -50411.21, -56551.36, -64712.30, 0.00, 0.00, 0.00
75, -15194.25, -31170.60, -187500.02, -28867.52, -54554.08, -50405.46, -56544.57, -64702.26, 0.00, 0.00, 0.00
76, -15188.99, -31169.15, -187500.02, -28869.67, -54548.18, -50402.67, -56543.25, -64699.49, 0.00, 0.00, 0.00
77, -15188.95, -31166.73, -187500.02, -28867.86, -54547.84, -50401.64, -56543.41, -64700.34, 0.00, 0.00, 0.00
78, -15186.69, -31163.58, -187500.02, -28860.44, -54546.01, -50398.31, -56542.07, -64698.78, -0.00, 0.69, 0.66
79, -15190.56, -31169.75, -187500.02, -28867.17, -54554.48, -50406.18, -56548.55, -64708.32, 0.00, 0.00, 0.00
80, -15193.06, -31171.79, -187500.02, -28871.63, -54557.45, -50409.06, -56549.62, -64711.96, 0.00, 0.00, 0.00
81, -15198.07, -31175.97, -187500.02, -28875.05, -54558.30, -50414.29, -56550.61, -64714.09, 0.00, 0.00, 0.00
82, -15200.71, -31178.85, -187500.02, -28880.11, -54565.10, -50428.53, -56561.00, -64721.91, 0.00, 0.00, 0.00
83, -15196.97, -31175.38, -187500.02, -28875.81, -54562.73, -50409.48, -56554.00, -64718.94, 0.00, 0.00, 0.00
84, -15198.25, -31175.45, -187500.02, -28879.75, -54558.01, -50413.89, -56552.82, -64713.77, 0.00, 0.00, 0.00
85, -15195.23, -31176.08, -187500.02, -28881.98, -54559.33, -50416.28, -56553.29, -64715.61, 0.00, 0.00, 0.00
86, -15204.71, -31181.06, -187500.02, -28892.89, -54574.89, -50434.16, -56574.05, -64734.76, 0.00, 0.00, 0.00
87, -15197.38, -31174.80, -187500.02, -28884.98, -54567.40, -50428.80, -56564.91, -64724.70, 0.00, 0.00, 0.00
88, -15197.93, -31175.70, -187500.02, -28882.41, -54558.17, -50421.78, -56554.76, -64712.21, -0.01, 0.70, 0.66
89, -15202.87, -31181.20, -187500.02, -28890.41, -54560.58, -50424.46, -56559.41, -64715.92, 0.00, 0.00, 0.00
90, -15202.81, -31179.99, -187500.02, -28889.25, -54566.55, -50428.42, -56566.30, -64722.31, 0.00, 0.00, 0.00
91, -15199.23, -31174.51, -187500.02, -28883.57, -54567.27, -50428.95, -56567.03, -64722.80, 0.00, 0.00, 0.00
92, -15194.54, -31172.79, -187500.02, -28880.98, -54552.78, -50420.93, -56560.17, -64720.61, 0.00, 0.00, 0.00
93, -15200.62, -31174.89, -187500.02, -28887.10, -54555.22, -50416.28, -56557.15, -64724.93, 0.00, 0.00, 0.00
94, -15211.61, -31186.36, -187500.02, -28896.58, -54585.21, -50427.39, -56564.98, -64728.13, 0.00, 0.00, 0.00
95, -15205.76, -31181.00, -187500.02, -28890.34, -54581.64, -50428.02, -56565.91, -64727.21, 0.00, 0.00, 0.00
96, -15196.86, -31173.08, -187500.02, -28877.98, -54566.93, -50417.02, -56553.09, -64714.09, 0.00, 0.00, 0.00
97, -15204.86, -31178.94, -187500.02, -28881.85, -54570.20, -50418.80, -56552.41, -64715.20, 0.00, 0.00, 0.00
98, -15213.36, -31187.81, -187500.02, -28891.86, -54584.01, -50432.89, -56563.08, -64735.21, -0.01, 0.70, 0.66
99, -15203.86, -31178.74, -187500.02, -28887.37, -54577.01, -50424.46, -56564.80, -64724.97, 0.00, 0.00, 0.00
100, -15207.72, -31177.87, -187500.02, -28892.00, -54582.42, -50431.82, -56570.12, -64728.62, 0.00, 0.00, 0.00
101, -15217.04, -31187.83, -187500.02, -28882.41, -54567.07, -50415.95, -56550.98, -64711.98, 0.00, 0.00, 0.00
102, -15196.30, -31168.88, -187500.02, -28852.21, -54537.58, -50385.25, -56520.72, -64683.64, 0.00, 0.00, 0.00
103, -15192.48, -31160.14, -187500.02, -28846.38, -54540.29, -50386.22, -56521.23, -64687.00, 0.00, 0.00, 0.00
104, -15205.56, -31171.09, -187500.02, -28865.02, -54562.48, -50408.08, -56543.63, -64709.24, 0.00, 0.00, 0.00
105, -15208.06, -31175.23, -187500.02, -28873.36, -54563.11, -50411.03, -56546.76, -64709.28, 0.00, 0.00, 0.00
106, -15193.06, -31159.00, -187500.02, -28852.01, -54536.13, -50384.88, -56518.66, -64682.66, 0.00, 0.00, 0.00
107, -15176.25, -31143.00, -187500.02, -28840.43, -54531.32, -50377.88, -56512.70, -64679.91, 0.00, 0.00, 0.00
108, -15176.74, -31147.36, -187500.02, -28848.23, -54544.67, -50387.76, -56523.67, -64692.36, -0.01, 0.70, 0.66
109, -15209.20, -31181.84, -187500.02, -28879.15, -54566.57, -50415.68, -56548.44, -64715.38, 0.00, 0.00, 0.00
110, -15215.39, -31177.31, -187500.02, -28874.14, -54557.61, -50406.78, -56535.36, -64703.76, 0.00, 0.00, 0.00
111, -15198.18, -31160.19, -187500.02, -28852.03, -54542.34, -50379.00, -56514.42, -64686.08, 0.00, 0.00, 0.00
112, -15204.51, -31165.62, -187500.02, -28859.43, -54553.23, -50392.54, -56530.84, -64698.89, 0.00, 0.00, 0.00
113, -15215.21, -31176.32, -187500.02, -28877.42, -54562.37, -50405.71, -56539.65, -64705.70, 0.00, 0.00, 0.00
114, -15201.58, -31164.34, -187500.02, -28867.77, -54543.95, -50385.86, -56519.09, -64691.58, 0.00, 0.00, 0.00
115, -15198.43, -31158.17, -187500.02, -28861.29, -54538.68, -50383.54, -56519.07, -64693.05, 0.00, 0.00, 0.00
116, -15209.87, -31170.67, -187500.02, -28874.25, -54552.29, -50402.67, -56538.45, -64708.39, 0.00, 0.00, 0.00
117, -15215.06, -31175.85, -187500.02, -28884.18, -54565.21, -50412.84, -56548.64, -64719.36, 0.00, 0.00, 0.00
118, -15198.83, -31160.39, -187500.02, -28873.74, -54548.98, -50396.50, -56527.71, -64697.05, 0.00, 0.70, 0.65
119, -15181.30, -31141.46, -187500.02, -28851.47, -54533.20, -50375.78, -56507.91, -64679.15, 0.00, 0.00, 0.00
120, -15193.11, -31151.27, -187500.02, -28855.43, -54547.82, -50387.87, -56524.99, -64698.15, 0.00, 0.00, 0.00
121, -15197.31, -31161.10, -187500.02, -28865.20, -54559.96, -50397.19, -56539.34, -64712.75, 0.00, 0.00, 0.00
122, -15183.56, -31147.56, -187500.02, -28858.76, -54549.70, -50383.02, -56522.51, -64701.05, 0.00, 0.00, 0.00
123, -15173.64, -31135.20, -187500.02, -28843.07, -54542.77, -50370.75, -56514.55, -64696.45, 0.00, 0.00, 0.00
124, -15173.79, -31135.17, -187500.02, -28840.66, -54552.18, -50378.33, -56526.78, -64706.89, 0.00, 0.00, 0.00
125, -15174.31, -31135.44, -187500.02, -28847.21, -54558.39, -50386.11, -56539.83, -64716.99, 0.00, 0.00, 0.00
126, -15186.09, -31141.21, -187500.02, -28860.55, -54561.77, -50395.29, -56547.07, -64722.47, 0.00, 0.00, 0.00
127, -15189.26, -31149.52, -187500.02, -28867.12, -54566.24, -50404.57, -56556.97, -64729.51, 0.00, 0.00, 0.00
128, -15202.07, -31164.37, -187500.02, -28879.68, -54573.17, -50423.01, -56569.89, -64733.53, 0.00, 0.69, 0.66
129, -15208.06, -31170.11, -187500.02, -28899.51, -54594.63, -50445.16, -56589.79, -64757.25, 0.00, 0.00, 0.00
130, -15215.52, -31179.32, -187500.02, -28912.36, -54599.81, -50449.59, -56593.81, -64760.98, 0.00, 0.00, 0.00
131, -15210.52, -31160.70, -187500.02, -28900.07, -54583.27, -50434.43, -56581.00, -64744.44, 0.00, 0.00, 0.00
132, -15199.63, -31155.36, -187500.02, -28893.92, -54581.86, -50429.76, -56569.92, -64739.41, 0.00, 0.00, 0.00
133, -15194.27, -31157.26, -187500.02, -28881.67, -54575.83, -50419.88, -56560.17, -64730.38, 0.00, 0.00, 0.00
134, -15210.16, -31164.92, -187500.02, -28885.52, -54578.91, -50421.13, -56560.35, -64730.83, 0.00, 0.00, 0.00
135, -15194.51, -31149.08, -187500.02, -28868.10, -54559.18, -50394.51, -56529.26, -64705.23, 0.00, 0.00, 0.00
136, -15181.13, -31142.06, -187500.02, -28862.87, -54557.05, -50393.48, -56528.48, -64704.54, 0.00, 0.00, 0.00
137, -15175.96, -31144.83, -187500.02, -28861.33, -54562.04, -50397.73, -56535.76, -64711.98, 0.00, 0.00, 0.00
138, -15177.08, -31141.52, -187500.02, -28859.86, -54559.11, -50391.94, -56531.00, -64708.01, 0.00, 0.00, 0.00
139, -15175.29, -31136.74, -187500.02, -28856.77, -54552.47, -50384.56, -56525.68, -64704.03, 0.01, 0.69, 0.66
140, -15176.70, -31136.61, -187500.02, -28857.93, -54554.57, -50384.23, -56527.20, -64706.64, 0.00, 0.00, 0.00
141, -15170.35, -31126.59, -187500.02, -28851.52, -54553.32, -50378.35, -56522.75, -64700.27, 0.00, 0.00, 0.00
142, -15175.60, -31142.80, -187500.02, -28869.69, -54569.41, -50398.18, -56545.04, -64718.89, 0.00, 0.00, 0.00
143, -15163.40, -31136.29, -187500.02, -28861.11, -54558.17, -50382.33, -56529.71, -64708.10, 0.00, 0.00, 0.00
144, -15175.31, -31140.27, -187500.02, -28860.08, -54557.34, -50381.59, -56521.43, -64700.14, 0.00, 0.00, 0.00
145, -15171.83, -31130.88, -187500.02, -28849.44, -54552.18, -50378.77, -56519.31, -64697.73, 0.00, 0.00, 0.00
146, -15185.42, -31147.40, -187500.02, -28866.40, -54568.12, -50390.00, -56530.20, -64715.32, 0.00, 0.00, 0.00
147, -15184.54, -31151.45, -187500.02, -28874.70, -54564.12, -50391.05, -56528.12, -64709.75, 0.00, 0.00, 0.00
148, -15171.47, -31133.90, -187500.02, -28861.35, -54548.29, -50380.59, -56517.55, -64696.56, 0.00, 0.00, 0.00
149, -15167.22, -31128.42, -187500.02, -28853.44, -54544.49, -50379.40, -56514.86, -64693.25, 0.01, 0.70, 0.68
150, -15176.30, -31137.10, -187500.02, -28861.78, -54553.27, -50389.93, -56525.01, -64702.82, 0.00, 0.00, 0.00
151, -15169.14, -31134.15, -187500.02, -28866.85, -54552.40, -50389.12, -56526.60, -64706.29, 0.00, 0.00, 0.00
152, -15154.50, -31120.36, -187500.02, -28850.60, -54535.77, -50368.87, -56510.26, -64688.72, 0.00, 0.00, 0.00
153, -15159.13, -31124.04, -187500.02, -28846.40, -54538.34, -50370.35, -56512.32, -64688.98, 0.00, 0.00, 0.00
154, -15184.63, -31138.28, -187500.02, -28859.99, -54558.50, -50391.09, -56534.62, -64709.44, 0.00, 0.00, 0.00
155, -15184.68, -31139.00, -187500.02, -28859.21, -54551.04, -50382.62, -56526.51, -64701.17, 0.00, 0.00, 0.00
156, -15173.84, -31128.11, -187500.02, -28851.63, -54538.59, -50374.62, -56519.18, -64689.39, 0.00, 0.00, 0.00
157, -15161.37, -31112.67, -187500.02, -28835.89, -54530.90, -50363.57, -56503.96, -64679.13, 0.00, 0.00, 0.00
158, -15179.74, -31132.34, -187500.02, -28851.83, -54551.15, -50380.18, -56521.82, -64698.73, 0.00, 0.00, 0.00
159, -15192.79, -31145.17, -187500.02, -28870.32, -54563.22, -50394.29, -56538.13, -64713.53, 0.02, 0.67, 0.67
160, -15179.99, -31133.83, -187500.02, -28864.53, -54552.05, -50383.18, -56528.25, -64704.12, 0.00, 0.00, 0.00
161, -15164.18, -31113.54, -187500.02, -28847.85, -54540.56, -50371.24, -56515.94, -64692.29, 0.00, 0.00, 0.00
162, -15169.37, -31118.88, -187500.02, -28849.53, -54545.09, -50376.61, -56521.91, -64699.96, 0.00, 0.00, 0.00
163, -15201.06, -31153.68, -187500.02, -28879.26, -54569.46, -50401.42, -56545.96, -64723.63, 0.00, 0.00, 0.00
164, -15197.24, -31151.71, -187500.02, -28875.30, -54557.81, -50391.29, -56537.91, -64714.09, 0.00, 0.00, 0.00
165, -15190.11, -31141.14, -187500.02, -28856.35, -54540.29, -50373.61, -56517.30, -64695.47, 0.00, 0.00, 0.00
166, -15205.38, -31156.36, -187500.02, -28850.96, -54540.80, -50373.30, -56516.07, -64694.46, 0.00, 0.00, 0.00
167, -15220.80, -31172.10, -187500.02, -28857.71, -54547.84, -50377.79, -56519.20, -64699.07, 0.00, 0.00, 0.00
168, -15218.90, -31171.05, -187500.02, -28850.96, -54536.02, -50364.20, -56506.48, -64688.38, 0.00, 0.00, 0.00
169, -15234.37, -31182.45, -187500.02, -28835.58, -54521.96, -50350.52, -56491.82, -64674.17, 0.00, 0.67, 0.68
170, -15268.95, -31217.67, -187500.02, -28845.80, -54533.49, -50364.40, -56502.75, -64684.25, 0.00, 0.00, 0.00
171, -15314.34, -31266.40, -187500.02, -28877.45, -54562.77, -50394.96, -56533.75, -64714.40, 0.00, 0.00, 0.00
172, -15328.18, -31283.68, -187500.02, -28882.72, -54561.66, -50391.43, -56533.17, -64715.81, 0.00, 0.00, 0.00
173, -15336.20, -31298.10, -187500.02, -28877.76, -54553.21, -50385.30, -56525.68, -64705.66, 0.00, 0.00, 0.00
174, -15353.61, -31313.94, -187500.02, -28876.69, -54552.92, -50390.22, -56528.25, -64705.48, 0.00, 0.00, 0.00
175, -15370.78, -31327.60, -187500.02, -28882.05, -54559.78, -50397.08, -56534.02, -64713.62, 0.00, 0.00, 0.00
176, -15399.26, -31356.48, -187500.02, -28901.81, -54570.26, -50405.91, -56543.12, -64724.23, 0.00, 0.00, 0.00
177, -15392.28, -31347.74, -187500.02, -28888.33, -54551.57, -50388.63, -56525.46, -64707.88, 0.00, 0.00, 0.00
178, -15387.57, -31344.48, -187500.02, -28881.52, -54554.77, -50387.04, -56526.66, -64712.90, 0.00, 0.00, 0.00
179, -15410.23, -31378.83, -187500.02, -28895.89, -54567.89, -50404.68, -56539.50, -64718.27, -0.00, 0.68, 0.68
180, -15431.82, -31399.04, -187500.02, -28912.34, -54578.73, -50414.45, -56547.92, -64726.45, 0.00, 0.00, 0.00
181, -15427.13, -31387.75, -187500.02, -28903.08, -54566.84, -50403.61, -56534.49, -64713.24, 0.00, 0.00, 0.00
182, -15428.65, -31391.28, -187500.02, -28899.33, -54571.36, -50407.23, -56540.23, -64719.63, 0.00, 0.00, 0.00
183, -15428.83, -31393.87, -187500.02, -28900.34, -54579.83, -50415.90, -56550.65, -64728.59, 0.00, 0.00, 0.00
184, -15427.55, -31391.10, -187500.02, -28910.88, -54588.99, -50423.86, -56552.84, -64735.10, 0.00, 0.00, 0.00
185, -15393.80, -31362.25, -187500.02, -28899.55, -54576.10, -50407.63, -56537.59, -64723.43, 0.00, 0.00, 0.00
186, -15368.68, -31342.33, -187500.02, -28886.99, -54572.63, -50401.08, -56533.68, -64720.70, 0.00, 0.00, 0.00
187, -15379.83, -31342.60, -187500.02, -28887.04, -54574.80, -50407.12, -56534.38, -64716.16, 0.00, 0.00, 0.00
188, -15390.81, -31349.48, -187500.02, -28899.06, -54585.11, -50418.02, -56543.92, -64726.38, 0.00, 0.00, 0.00
189, -15389.69, -31346.22, -187500.02, -28907.00, -54585.44, -50425.55, -56553.91, -64729.93, 0.01, 0.68, 0.67
190, -15377.26, -31321.65, -187500.02, -28897.94, -54581.35, -50417.09, -56547.09, -64726.78, 0.00, 0.00, 0.00
191, -15370.76, -31310.97, -187500.02, -28902.01, -54590.02, -50430.21, -56553.80, -64733.53, 0.00, 0.00, 0.00
192, -15357.32, -31316.56, -187500.02, -28903.20, -54588.39, -50429.91, -56550.74, -64726.98, 0.00, 0.00, 0.00
193, -15337.52, -31308.11, -187500.02, -28901.92, -54585.24, -50415.57, -56548.30, -64724.19, 0.00, 0.00, 0.00
194, -15315.66, -31273.02, -187500.02, -28878.54, -54569.88, -50396.52, -56526.64, -64708.77, 0.00, 0.00, 0.00
195, -15305.58, -31255.94, -187500.02, -28876.84, -54571.76, -50404.81, -56533.50, -64716.72, 0.00, 0.00, 0.00
196, -15317.14, -31283.19, -187500.02, -28898.03, -54582.45, -50427.03, -56555.52, -64741.85, 0.00, 0.00, 0.00
197, -15323.71, -31290.68, -187500.02, -28907.62, -54587.00, -50429.85, -56555.48, -64737.78, 0.00, 0.00, 0.00
198, -15289.13, -31251.27, -187500.02, -28894.12, -54583.07, -50418.38, -56536.66, -64714.24, 0.00, 0.00, 0.00
199, -15288.37, -31241.05, -187500.02, -28887.30, -54603.99, -50432.51, -56543.23, -64721.53, 0.02, 0.68, 0.67
200, -15318.25, -31274.18, -187500.02, -28895.31, -54624.38, -50430.94, -56553.22, -64736.33, 0.00, 0.00, 0.00
201, -15313.72, -31275.25, -187500.02, -28901.70, -54574.20, -50414.25, -56545.84, -64722.71, 0.00, 0.00, 0.00
202, -15279.03, -31253.26, -187500.02, -28897.27, -54577.57, -50416.86, -56546.04, -64719.94, 0.00, 0.00, 0.00
203, -15251.06, -31224.69, -187500.02, -28882.10, -54578.40, -50412.10, -56543.25, -64722.29, 0.00, 0.00, 0.00
204, -15265.12, -31240.00, -187500.02, -28899.98, -54578.40, -50444.11, -56557.85, -64740.24, 0.00, 0.00, 0.00
205, -15282.29, -31254.71, -187500.02, -28902.41, -54600.04, -50438.57, -56568.06, -64742.21, 0.00, 0.00, 0.00
206, -15257.48, -31223.53, -187500.02, -28900.25, -54596.93, -50413.02, -56552.17, -64727.88, 0.00, 0.00, 0.00
207, -15236.18, -31212.89, -187500.02, -28890.50, -54584.25, -50411.32, -56544.32, -64723.18, 0.00, 0.00, 0.00
208, -15239.40, -31224.20, -187500.02, -28895.98, -54591.07, -50438.30, -56561.87, -64734.98, 0.00, 0.00, 0.00
209, -15245.30, -31229.59, -187500.02, -28925.75, -54598.56, -50480.99, -56579.82, -64743.90, 0.01, 0.69, 0.67
210, -15223.30, -31216.60, -187500.02, -28895.82, -54584.12, -50421.15, -56553.69, -64726.92, 0.00, 0.00, 0.00
211, -15207.17, -31211.46, -187500.02, -28885.72, -54602.76, -50403.54, -56544.46, -64728.17, 0.00, 0.00, 0.00
212, -15208.10, -31210.12, -187500.02, -28895.46, -54614.86, -50426.96, -56559.16, -64740.86, 0.00, 0.00, 0.00
213, -15202.18, -31210.37, -187500.02, -28905.41, -54583.70, -50434.23, -56564.30, -64739.52, 0.00, 0.00, 0.00
214, -15206.94, -31214.52, -187500.02, -28918.91, -54604.21, -50442.34, -56576.49, -64749.78, 0.00, 0.00, 0.00
215, -15190.29, -31184.91, -187500.02, -28900.11, -54585.35, -50428.04, -56559.41, -64733.67, 0.00, 0.00, 0.00
216, -15176.21, -31162.82, -187500.02, -28891.37, -54582.02, -50428.60, -56555.05, -64729.91, 0.00, 0.00, 0.00
217, -15181.55, -31185.73, -187500.02, -28892.74, -54593.71, -50436.42, -56561.18, -64740.04, 0.00, 0.00, 0.00
218, -15156.54, -31162.98, -187500.02, -28880.64, -54578.71, -50407.88, -56541.06, -64723.48, 0.00, 0.00, 0.00
219, -15143.95, -31142.86, -187500.02, -28865.24, -54559.20, -50395.36, -56525.59, -64703.38, 0.00, 0.00, 0.00
220, -15141.03, -31151.78, -187500.02, -28863.57, -54556.88, -50401.98, -56530.46, -64708.86, 0.00, 0.69, 0.66
221, -15152.07, -31163.40, -187500.02, -28884.60, -54572.65, -50425.40, -56554.47, -64735.88, 0.00, 0.00, 0.00
222, -15159.53, -31157.64, -187500.02, -28891.15, -54588.84, -50424.04, -56554.96, -64730.94, 0.00, 0.00, 0.00
223, -15142.77, -31138.86, -187500.02, -28875.28, -54567.89, -50411.61, -56534.54, -64707.88, 0.00, 0.00, 0.00
224, -15131.33, -31130.55, -187500.02, -28872.66, -54570.64, -50429.54, -56541.69, -64715.79, 0.00, 0.00, 0.00
225, -15139.10, -31144.00, -187500.02, -28890.39, -54593.42, -50427.93, -56557.11, -64737.51, 0.00, 0.00, 0.00
226, -15145.21, -31148.25, -187500.02, -28902.73, -54592.77, -50423.90, -56560.24, -64739.30, 0.00, 0.00, 0.00
227, -15123.44, -31128.96, -187500.02, -28896.87, -54573.82, -50422.58, -56550.40, -64724.52, 0.00, 0.00, 0.00
228, -15115.48, -31125.29, -187500.02, -28878.10, -54566.60, -50419.52, -56544.64, -64719.52, 0.00, 0.00, 0.00
229, -15117.27, -31128.20, -187500.02, -28880.26, -54596.14, -50451.75, -56565.22, -64740.80, 0.00, 0.00, 0.00
230, -15130.99, -31136.76, -187500.02, -28902.77, -54621.96, -50458.37, -56573.63, -64752.27, -0.00, 0.69, 0.67
231, -15124.31, -31122.77, -187500.02, -28894.10, -54559.91, -50424.06, -56551.70, -64726.61, 0.00, 0.00, 0.00
232, -15101.51, -31107.12, -187500.02, -28875.73, -54568.63, -50410.98, -56540.12, -64720.30, 0.00, 0.00, 0.00
233, -15111.19, -31112.08, -187500.02, -28882.86, -54580.52, -50425.18, -56556.08, -64736.26, 0.00, 0.00, 0.00
234, -15122.68, -31121.92, -187500.02, -28902.86, -54598.25, -50450.03, -56571.23, -64750.30, 0.00, 0.00, 0.00
235, -15114.38, -31117.07, -187500.02, -28907.02, -54571.71, -50434.74, -56563.86, -64746.23, 0.00, 0.00, 0.00
236, -15101.08, -31104.15, -187500.02, -28876.31, -54580.21, -50416.37, -56548.01, -64725.31, 0.00, 0.00, 0.00
237, -15099.43, -31102.21, -187500.02, -28877.58, -54589.24, -50443.50, -56556.50, -64727.16, 0.00, 0.00, 0.00
238, -15122.16, -31125.05, -187500.02, -28898.08, -54596.17, -50437.34, -56571.05, -64746.34, 0.00, 0.00, 0.00
239, -15105.64, -31111.97, -187500.02, -28895.71, -54590.02, -50423.23, -56557.54, -64738.70, 0.00, 0.00, 0.00
240, -15085.55, -31084.48, -187500.02, -28868.93, -54573.37, -50418.05, -56543.18, -64721.91, 0.00, 0.68, 0.66
241, -15085.55, -31079.36, -187500.02, -28866.99, -54575.74, -50414.16, -56549.09, -64725.17, 0.00, 0.00, 0.00
242, -15094.29, -31095.12, -187500.02, -28888.47, -54592.21, -50432.29, -56565.87, -64741.65, 0.00, 0.00, 0.00
243, -15112.10, -31115.06, -187500.02, -28900.07, -54593.06, -50430.99, -56558.98, -64738.74, 0.00, 0.00, 0.00
244, -15104.39, -31114.12, -187500.02, -28882.72, -54582.54, -50419.75, -56547.12, -64728.41, 0.00, 0.00, 0.00
245, -15089.59, -31098.58, -187500.02, -28876.78, -54584.37, -50421.71, -56547.30, -64729.55, 0.00, 0.00, 0.00
246, -15116.57, -31111.59, -187500.02, -28891.06, -54602.34, -50450.68, -56567.30, -64748.20, 0.00, 0.00, 0.00
247, -15122.79, -31121.03, -187500.02, -28897.81, -54602.45, -50434.56, -56566.79, -64749.63, 0.00, 0.00, 0.00
248, -15103.27, -31107.08, -187500.02, -28884.04, -54586.80, -50411.21, -56549.00, -64733.49, 0.00, 0.00, 0.00
249, -15106.34, -31109.07, -187500.02, -28884.35, -54596.39, -50424.73, -56555.75, -64744.02, 0.00, 0.00, 0.00
250, -15113.31, -31114.59, -187500.02, -28893.18, -54604.95, -50444.73, -56566.92, -64749.76, -0.00, 0.69, 0.67
251, -15115.88, -31116.55, -187500.02, -28895.60, -54597.09, -50429.45, -56558.76, -64739.08, 0.00, 0.00, 0.00
252, -15097.53, -31098.85, -187500.02, -28877.56, -54574.53, -50407.96, -56533.55, -64717.06, 0.00, 0.00, 0.00
253, -15087.11, -31092.55, -187500.02, -28870.74, -54572.43, -50412.04, -56536.32, -64716.90, 0.00, 0.00, 0.00
254, -15100.19, -31097.15, -187500.02, -28876.60, -54582.64, -50424.64, -56547.63, -64726.65, 0.00, 0.00, 0.00
255, -15117.60, -31116.00, -187500.02, -28902.62, -54602.88, -50444.31, -56566.99, -64748.40, 0.00, 0.00, 0.00
0, -15101.87, -31101.24, -187500.02, -28899.17, -54590.09, -50440.33, -56560.62, -64738.45, 0.00, 0.00, 0.00
1, -15086.40, -31089.58, -187500.02, -28882.57, -54572.27, -50430.88, -56552.26, -64734.25, 0.00, 0.00, 0.00
2, -15094.33, -31097.33, -187500.02, -28884.46, -54584.55, -50430.16, -56555.61, -64740.57, 0.00, 0.00, 0.00
3, -15107.88, -31103.77, -187500.02, -28895.24, -54611.66, -50438.30, -56561.13, -64741.85, 0.00, 0.00, 0.00
4, -15096.05, -31101.20, -187500.02, -28896.36, -54603.95, -50435.68, -56561.56, -64743.48, 0.00, 0.69, 0.67
5, -15090.31, -31092.33, -187500.02, -28885.40, -54597.17, -50430.16, -56559.66, -64743.66, 0.00, 0.00, 0.00
6, -15100.93, -31093.85, -187500.02, -28875.05, -54596.77, -50427.14, -56557.11, -64742.18, 0.00, 0.00, 0.00
7, -15115.72, -31103.59, -187500.02, -28887.33, -54605.87, -50441.38, -56565.63, -64748.48, 0.00, 0.00, 0.00
8, -15113.53, -31104.80, -187500.02, -28899.26, -54603.81, -50453.12, -56571.26, -64748.80, 0.00, 0.00, 0.00
9, -15104.33, -31102.47, -187500.02, -28898.73, -54602.70, -50466.06, -56572.42, -64749.52, 0.00, 0.00, 0.00
10, -15106.83, -31108.24, -187500.02, -28893.74, -54607.37, -50423.25, -56561.45, -64750.90, 0.00, 0.00, 0.00
11, -15119.48, -31112.31, -187500.02, -28900.96, -54611.90, -50427.19, -56568.51, -64757.20, 0.00, 0.00, 0.00
12, -15113.47, -31101.83, -187500.02, -28905.59, -54598.18, -50439.86, -56571.19, -64744.22, 0.00, 0.00, 0.00
13, -15091.58, -31095.41, -187500.02, -28894.97, -54601.22, -50433.98, -56561.58, -64736.28, 0.00, 0.00, 0.00
14, -15100.32, -31100.44, -187500.02, -28895.73, -54623.17, -50451.68, -56575.30, -64752.98, 0.01, 0.69, 0.66
15, -15124.51, -31119.15, -187500.02, -28908.58, -54591.79, -50462.79, -56584.24, -64754.61, 0.00, 0.00, 0.00
16, -15128.04, -31119.42, -187500.02, -28906.37, -54602.14, -50453.38, -56579.15, -64755.21, 0.00, 0.00, 0.00
17, -15111.70, -31104.37, -187500.02, -28895.71, -54587.79, -50439.86, -56569.11, -64748.31, 0.00, 0.00, 0.00
18, -15109.76, -31103.79, -187500.02, -28893.50, -54584.84, -50442.81, -56570.95, -64750.86, 0.00, 0.00, 0.00
19, -15115.70, -31111.32, -187500.02, -28902.12, -54615.30, -50451.60, -56576.49, -64752.04, 0.00, 0.00, 0.00
20, -15116.71, -31115.21, -187500.02, -28907.58, -54616.93, -50451.35, -56576.42, -64754.59, 0.00, 0.00, 0.00
21, -15103.83, -31095.66, -187500.02, -28894.17, -54592.43, -50439.93, -56561.18, -64735.90, 0.00, 0.00, 0.00
22, -15099.47, -31096.75, -187500.02, -28879.50, -54581.93, -50423.48, -56553.93, -64727.43, 0.00, 0.00, 0.00
23, -15113.42, -31113.00, -187500.02, -28885.45, -54591.05, -50429.58, -56558.05, -64738.41, 0.00, 0.00, 0.00
24, -15125.96, -31123.42, -187500.02, -28903.96, -54602.89, -50447.24, -56570.30, -64749.61, 0.01, 0.69, 0.66
25, -15117.40, -31116.73, -187500.02, -28908.98, -54598.80, -50459.69, -56571.55, -64747.44, 0.00, 0.00, 0.00
26, -15114.18, -31107.82, -187500.02, -28901.32, -54595.63, -50453.85, -56567.17, -64742.70, 0.00, 0.00, 0.00
27, -15107.25, -31092.26, -187500.02, -28892.58, -54592.84, -50449.50, -56568.06, -64744.66, 0.00, 0.00, 0.00
28, -15123.50, -31112.00, -187500.02, -28910.10, -54605.69, -50443.77, -56575.75, -64755.48, 0.00, 0.00, 0.00
29, -15107.90, -31109.47, -187500.02, -28897.52, -54587.52, -50426.29, -56558.32, -64738.52, 0.00, 0.00, 0.00
30, -15094.09, -31090.29, -187500.02, -28869.78, -54580.07, -50413.00, -56546.27, -64729.78, 0.00, 0.00, 0.00
31, -15100.01, -31093.09, -187500.02, -28876.26, -54590.69, -50425.45, -56554.45, -64733.82, 0.00, 0.00, 0.00
32, -15110.32, -31104.84, -187500.02, -28894.88, -54614.88, -50443.17, -56569.49, -64751.04, 0.00, 0.00, 0.00
33, -15099.65, -31094.31, -187500.02, -28889.09, -54628.49, -50435.14, -56565.16, -64755.62, 0.00, 0.00, 0.00
34, -15079.58, -31069.19, -187500.02, -28867.86, -54562.44, -50406.02, -56545.98, -64732.86, 0.01, 0.69, 0.66
35, -15083.47, -31078.85, -187500.02, -28872.46, -54581.30, -50423.77, -56556.46, -64737.63, 0.00, 0.00, 0.00
36, -15121.31, -31118.01, -187500.02, -28912.07, -54617.25, -50464.34, -56594.82, -64772.69, 0.00, 0.00, 0.00
37, -15130.66, -31129.38, -187500.02, -28927.43, -54616.48, -50474.71, -56601.41, -64777.32, 0.00, 0.00, 0.00
38, -15125.80, -31129.25, -187500.02, -28918.60, -54598.52, -50467.02, -56591.69, -64771.91, 0.00, 0.00, 0.00
39, -15119.52, -31122.46, -187500.02, -28913.93, -54619.26, -50467.44, -56596.36, -64777.12, 0.00, 0.00, 0.00
40, -15137.09, -31138.91, -187500.02, -28930.17, -54646.75, -50485.59, -56610.13, -64791.20, 0.00, 0.00, 0.00
41, -15142.12, -31147.36, -187500.02, -28942.96, -54640.34, -50496.07, -56614.51, -64789.37, 0.00, 0.00, 0.00
42, -15125.58, -31134.37, -187500.02, -28930.11, -54626.99, -50479.76, -56607.33, -64780.02, 0.00, 0.00, 0.00
43, -15117.54, -31128.40, -187500.02, -28918.24, -54621.07, -50469.84, -56591.06, -64769.52, 0.00, 0.00, 0.00
44, -15129.67, -31135.35, -187500.02, -28926.08, -54634.41, -50478.38, -56604.02, -64785.34, 0.00, 0.00, 0.00
45, -15134.16, -31134.57, -187500.02, -28921.01, -54626.19, -50466.53, -56589.63, -64773.43, 0.01, 0.70, 0.66
46, -15117.89, -31119.35, -187500.02, -28911.85, -54607.93, -50470.26, -56576.15, -64755.50, 0.00, 0.00, 0.00
47, -15120.80, -31124.33, -187500.02, -28918.62, -54613.40, -50476.29, -56582.57, -64760.91, 0.00, 0.00, 0.00
48, -15128.82, -31128.20, -187500.02, -28904.52, -54624.89, -50432.55, -56584.13, -64771.08, 0.00, 0.00, 0.00
49, -15131.01, -31133.99, -187500.02, -28911.51, -54627.84, -50450.10, -56589.21, -64773.14, 0.00, 0.00, 0.00
50, -15120.49, -31124.83, -187500.02, -28907.31, -54613.34, -50441.20, -56573.27, -64758.07, 0.00, 0.00, 0.00
51, -15107.16, -31111.64, -187500.02, -28896.76, -54603.10, -50437.13, -56563.08, -64748.82, 0.00, 0.00, 0.00
52, -15115.14, -31121.09, -187500.02, -28909.72, -54617.58, -50464.11, -56584.63, -64765.92, 0.00, 0.00, 0.00
53, -15133.43, -31139.29, -187500.02, -28923.87, -54627.19, -50451.95, -56586.95, -64775.33, 0.00, 0.00, 0.00
54, -15128.87, -31133.05, -187500.02, -28921.05, -54627.89, -50445.00, -56572.75, -64765.83, 0.00, 0.00, 0.00
55, -15115.46, -31119.77, -187500.02, -28903.89, -54613.13, -50441.52, -56566.88, -64750.74, 0.01, 0.69, 0.67
56, -15110.07, -31110.70, -187500.02, -28896.20, -54597.20, -50444.73, -56563.81, -64743.14, 0.00, 0.00, 0.00
57, -15119.41, -31118.79, -187500.02, -28909.32, -54620.82, -50448.64, -56578.99, -64764.04, 0.00, 0.00, 0.00
58, -15114.76, -31114.68, -187500.02, -28915.36, -54613.87, -50446.81, -56576.20, -64759.10, 0.00, 0.00, 0.00
59, -15105.62, -31109.56, -187500.02, -28920.45, -54610.43, -50477.64, -56578.16, -64755.91, 0.00, 0.00, 0.00
60, -15102.96, -31111.39, -187500.02, -28897.47, -54615.28, -50421.58, -56572.04, -64760.42, 0.00, 0.00, 0.00
61, -15116.89, -31126.72, -187500.02, -28901.88, -54630.61, -50442.99, -56588.11, -64777.97, 0.00, 0.00, 0.00
62, -15117.47, -31124.47, -187500.02, -28907.44, -54621.85, -50449.59, -56585.03, -64771.84, 0.00, 0.00, 0.00
63, -15113.94, -31117.43, -187500.02, -28903.33, -54609.40, -50434.68, -56569.04, -64751.64, 0.00, 0.00, 0.00
64, -15111.28, -31110.95, -187500.02, -28898.55, -54611.37, -50442.05, -56576.76, -64757.74, 0.00, 0.00, 0.00
65, -15114.81, -31118.81, -187500.02, -28905.79, -54619.66, -50451.84, -56584.58, -64767.24, 0.01, 0.69, 0.66
66, -15120.93, -31125.52, -187500.02, -28918.04, -54623.55, -50458.95, -56587.95, -64771.13, 0.00, 0.00, 0.00
67, -15115.86, -31117.56, -187500.02, -28907.71, -54612.26, -50447.46, -56574.50, -64759.42, 0.00, 0.00, 0.00
68, -15118.92, -31122.34, -187500.02, -28906.39, -54615.08, -50452.24, -56579.93, -64764.45, 0.00, 0.00, 0.00
69, -15125.69, -31130.44, -187500.02, -28912.99, -54624.64, -50462.21, -56592.34, -64776.63, 0.00, 0.00, 0.00
70, -15143.22, -31150.37, -187500.02, -28937.19, -54637.77, -50479.31, -56605.77, -64789.26, 0.00, 0.00, 0.00
71, -15128.17, -31139.89, -187500.02, -28922.96, -54613.45, -50461.50, -56586.57, -64773.88, 0.00, 0.00, 0.00
72, -15109.31, -31124.51, -187500.02, -28898.55, -54610.09, -50449.94, -56571.97, -64759.06, 0.00, 0.00, 0.00
73, -15121.56, -31131.93, -187500.02, -28904.02, -54637.92, -50448.46, -56580.27, -64766.23, 0.00, 0.00, 0.00
74, -15127.93, -31136.83, -187500.02, -28912.56, -54637.59, -50456.36, -56588.98, -64775.15, 0.00, 0.00, 0.00
75, -15107.10, -31118.01, -187500.02, -28897.85, -54614.16, -50436.98, -56564.55, -64755.01, 0.01, 0.69, 0.67
76, -15104.53, -31116.27, -187500.02, -28894.35, -54609.85, -50436.75, -56564.69, -64754.57, 0.00, 0.00, 0.00
77, -15113.49, -31121.99, -187500.02, -28900.69, -54616.15, -50446.23, -56569.71, -64759.64, 0.00, 0.00, 0.00
78, -15123.79, -31137.16, -187500.02, -28916.76, -54627.39, -50458.19, -56582.48, -64772.22, 0.00, 0.00, 0.00
79, -15118.70, -31135.91, -187500.02, -28922.44, -54617.54, -50456.96, -56579.66, -64764.58, 0.00, 0.00, 0.00
80, -15113.06, -31124.78, -187500.02, -28909.66, -54603.45, -50444.06, -56562.94, -64749.83, 0.00, 0.00, 0.00
81, -15104.95, -31119.71, -187500.02, -28899.51, -54603.39, -50440.44, -56562.07, -64755.26, 0.00, 0.00, 0.00
82, -15117.96, -31136.47, -187500.02, -28912.79, -54615.10, -50453.61, -56572.09, -64764.22, 0.00, 0.00, 0.00
83, -15126.10, -31141.84, -187500.02, -28922.98, -54616.31, -50456.27, -56577.02, -64765.99, 0.00, 0.00, 0.00
84, -15110.05, -31126.86, -187500.02, -28904.40, -54600.28, -50442.36, -56560.91, -64749.02, 0.00, 0.00, 0.00
85, -15101.80, -31119.26, -187500.02, -28891.39, -54598.11, -50434.23, -56551.32, -64744.84, 0.01, 0.68, 0.67
86, -15112.15, -31130.55, -187500.02, -28906.41, -54615.64, -50452.07, -56569.18, -64764.38, 0.00, 0.00, 0.00
87, -15114.63, -31133.27, -187500.02, -28916.83, -54617.92, -50461.45, -56574.32, -64766.68, 0.00, 0.00, 0.00
88, -15098.18, -31114.79, -187500.02, -28901.03, -54603.70, -50436.60, -56558.67, -64751.86, 0.00, 0.00, 0.00
89, -15075.51, -31093.98, -187500.02, -28890.39, -54597.09, -50436.57, -56552.46, -64743.68, 0.00, 0.00, 0.00
90, -15102.76, -31126.57, -187500.02, -28911.89, -54616.33, -50474.15, -56574.07, -64765.23, 0.00, 0.00, 0.00
91, -15138.79, -31162.26, -187500.02, -28929.88, -54627.57, -50480.03, -56589.12, -64777.97, 0.00, 0.00, 0.00
92, -15130.48, -31159.83, -187500.02, -28919.18, -54610.63, -50444.58, -56572.35, -64762.39, 0.00, 0.00, 0.00
93, -15123.50, -31155.29, -187500.02, -28908.16, -54598.63, -50449.16, -56569.83, -64754.30, 0.00, 0.00, 0.00
94, -15138.77, -31177.06, -187500.02, -28915.49, -54603.88, -50459.69, -56574.70, -64765.43, 0.00, 0.00, 0.00
95, -15158.39, -31198.88, -187500.02, -28935.09, -54609.36, -50470.37, -56585.50, -64781.61, 0.01, 0.68, 0.67
96, -15152.58, -31195.50, -187500.02, -28933.77, -54621.00, -50467.36, -56583.19, -64771.13, 0.00, 0.00, 0.00
97, -15143.44, -31191.32, -187500.02, -28915.09, -54608.04, -50457.72, -56570.57, -64752.75, 0.00, 0.00, 0.00
98, -15163.42, -31208.29, -187500.02, -28934.62, -54626.54, -50483.47, -56594.79, -64776.63, 0.00, 0.00, 0.00
99, -15175.92, -31227.44, -187500.02, -28957.49, -54642.13, -50499.77, -56612.03, -64796.07, 0.00, 0.00, 0.00
100, -15160.27, -31212.78, -187500.02, -28937.95, -54618.50, -50479.67, -56585.65, -64771.11, 0.00, 0.00, 0.00
101, -15142.12, -31194.21, -187500.02, -28922.98, -54610.27, -50467.91, -56576.98, -64764.27, 0.00, 0.00, 0.00
102, -15143.57, -31189.51, -187500.02, -28924.18, -54617.58, -50471.62, -56584.87, -64772.34, 0.00, 0.00, 0.00
103, -15162.26, -31206.32, -187500.02, -28948.55, -54635.11, -50501.20, -56606.08, -64790.82, 0.00, 0.00, 0.00
104, -15148.72, -31200.93, -187500.02, -28938.67, -54621.56, -50484.41, -56589.16, -64776.85, 0.00, 0.00, 0.00
105, -15139.80, -31192.95, -187500.02, -28927.49, -54613.58, -50467.53, -56576.71, -64769.14, 0.01, 0.68, 0.68
106, -15136.22, -31184.24, -187500.02, -28925.21, -54614.16, -50485.48, -56586.28, -64772.92, 0.00, 0.00, 0.00
107, -15145.63, -31193.91, -187500.02, -28936.37, -54626.52, -50496.50, -56597.92, -64784.00, 0.00, 0.00, 0.00
108, -15144.04, -31195.30, -187500.02, -28940.08, -54621.74, -50471.67, -56591.46, -64778.95, 0.00, 0.00, 0.00
109, -15131.44, -31179.88, -187500.02, -28926.69, -54610.05, -50468.49, -56582.93, -64768.49, 0.00, 0.00, 0.00
110, -15131.28, -31174.42, -187500.02, -28916.50, -54609.94, -50467.89, -56579.44, -64767.89, 0.00, 0.00, 0.00
111, -15150.84, -31190.43, -187500.02, -28931.87, -54631.06, -50486.71, -56600.67, -64790.33, 0.00, 0.00, 0.00
112, -15157.97, -31196.80, -187500.02, -28944.81, -54637.21, -50493.17, -56607.96, -64797.19, 0.00, 0.00, 0.00
113, -15154.75, -31195.05, -187500.02, -28940.95, -54625.45, -50489.21, -56600.18, -64781.81, 0.00, 0.00, 0.00
114, -15145.59, -31184.71, -187500.02, -28928.25, -54622.68, -50480.36, -56594.41, -64780.23, 0.00, 0.00, 0.00
115, -15159.78, -31207.44, -187500.02, -28947.77, -54642.68, -50502.13, -56618.06, -64803.89, 0.01, 0.68, 0.68
116, -15165.75, -31215.51, -187500.02, -28960.66, -54644.13, -50509.18, -56624.97, -64809.48, 0.00, 0.00, 0.00
117, -15156.09, -31200.02, -187500.02, -28946.47, -54625.32, -50496.48, -56611.87, -64792.50, 0.00, 0.00, 0.00
118, -15141.05, -31184.08, -187500.02, -28927.22, -54614.30, -50478.93, -56597.32, -64781.39, 0.00, 0.00, 0.00
119, -15152.25, -31193.94, -187500.02, -28935.81, -54626.36, -50493.17, -56613.55, -64795.83, 0.00, 0.00, 0.00
120, -15166.62, -31208.96, -187500.02, -28952.75, -54634.95, -50505.38, -56621.44, -64803.89, 0.00, 0.00, 0.00
121, -15144.63, -31189.11, -187500.02, -28933.68, -54615.73, -50483.07, -56599.33, -64784.90, 0.00, 0.00, 0.00
122, -15138.66, -31182.83, -187500.02, -28918.04, -54607.12, -50473.32, -56583.93, -64769.74, 0.00, 0.00, 0.00
123, -15151.33, -31195.66, -187500.02, -28932.01, -54625.70, -50494.96, -56605.88, -64791.58, 0.00, 0.00, 0.00
124, -15168.83, -31208.35, -187500.02, -28957.33, -54645.23, -50515.93, -56624.81, -64811.54, 0.00, 0.00, 0.00
125, -15156.52, -31201.71, -187500.02, -28946.49, -54624.53, -50494.31, -56600.23, -64786.62, 0.00, 0.00, 0.00
126, -15145.61, -31194.59, -187500.02, -28930.44, -54612.15, -50482.64, -56587.69, -64775.82, 0.01, 0.69, 0.67
127, -15167.31, -31207.33, -187500.02, -28948.10, -54632.78, -50507.86, -56612.50, -64799.36, 0.00, 0.00, 0.00
128, -15157.52, -31200.42, -187500.02, -28946.51, -54624.87, -50501.95, -56608.92, -64794.51, 0.00, 0.00, 0.00
129, -15151.46, -31192.84, -187500.02, -28941.42, -54607.84, -50489.55, -56596.67, -64778.91, 0.00, 0.00, 0.00
130, -15131.39, -31172.55, -187500.02, -28928.41, -54596.28, -50475.13, -56580.40, -64767.02, 0.00, 0.00, 0.00
131, -15144.00, -31179.86, -187500.02, -28930.67, -54604.57, -50482.55, -56587.37, -64772.07, 0.00, 0.00, 0.00
132, -15173.68, -31210.61, -187500.02, -28949.53, -54624.62, -50500.08, -56603.94, -64787.27, 0.00, 0.00, 0.00
133, -15167.20, -31218.32, -187500.02, -28951.92, -54625.11, -50495.61, -56603.82, -64786.71, 0.00, 0.00, 0.00
134, -15145.00, -31199.93, -187500.02, -28931.76, -54606.79, -50474.80, -56582.46, -64767.51, 0.00, 0.00, 0.00
135, -15147.02, -31187.10, -187500.02, -28924.99, -54607.88, -50479.22, -56581.96, -64767.51, 0.00, 0.00, 0.00
136, -15155.51, -31190.67, -187500.02, -28933.35, -54618.72, -50494.40, -56595.46, -64780.02, 0.01, 0.70, 0.69
137, -15163.65, -31203.32, -187500.02, -28945.31, -54623.73, -50488.39, -56601.59, -64788.94, 0.00, 0.00, 0.00
138, -15168.34, -31209.52, -187500.02, -28953.58, -54636.36, -50499.23, -56615.18, -64806.11, 0.00, 0.00, 0.00
139, -15167.60, -31205.96, -187500.02, -28950.85, -54639.39, -50502.65, -56614.87, -64805.84, 0.00, 0.00, 0.00
140, -15164.67, -31198.16, -187500.02, -28947.10, -54629.47, -50497.28, -56601.79, -64787.47, 0.00, 0.00, 0.00
141, -15161.05, -31194.79, -187500.02, -28949.44, -54626.57, -50494.29, -56600.16, -64787.02, 0.00, 0.00, 0.00
142, -15164.32, -31200.11, -187500.02, -28954.20, -54630.28, -50497.89, -56604.88, -64793.41, 0.00, 0.00, 0.00
143, -15152.83, -31192.37, -187500.02, -28941.06, -54620.33, -50488.10, -56596.07, -64785.28, 0.00, 0.00, 0.00
144, -15156.20, -31195.66, -187500.02, -28944.37, -54625.58, -50493.80, -56602.73, -64790.93, 0.00, 0.00, 0.00
145, -15155.76, -31197.94, -187500.02, -28950.80, -54626.03, -50493.86, -56603.09, -64792.21, 0.00, 0.00, 0.00
146, -15161.66, -31207.08, -187500.02, -28956.15, -54629.36, -50497.57, -56607.33, -64795.67, 0.01, 0.69, 0.68
147, -15164.92, -31205.02, -187500.02, -28950.96, -54628.82, -50501.62, -56608.61, -64791.63, 0.00, 0.00, 0.00
148, -15159.44, -31193.78, -187500.02, -28942.54, -54621.76, -50496.97, -56603.42, -64784.70, 0.00, 0.00, 0.00
149, -15158.33, -31197.33, -187500.02, -28948.84, -54625.56, -50504.48, -56612.61, -64792.27, 0.00, 0.00, 0.00
150, -15158.10, -31202.72, -187500.02, -28949.55, -54624.82, -50504.35, -56609.32, -64791.22, 0.00, 0.00, 0.00
151, -15174.00, -31213.36, -187500.02, -28956.51, -54636.58, -50516.08, -56623.47, -64804.32, 0.00, 0.00, 0.00
152, -15167.13, -31202.30, -187500.02, -28944.81, -54628.46, -50503.23, -56617.01, -64797.08, 0.00, 0.00, 0.00
153, -15166.33, -31204.51, -187500.02, -28944.30, -54626.52, -50487.49, -56596.49, -64788.96, 0.00, 0.00, 0.00
154, -15170.62, -31210.95, -187500.02, -28958.54, -54630.99, -50499.65, -56609.95, -64795.58, 0.00, 0.00, 0.00
155, -15174.73, -31211.84, -187500.02, -28961.04, -54631.11, -50502.00, -56609.57, -64793.88, 0.00, 0.00, 0.00
156, -15178.42, -31209.45, -187500.02, -28961.06, -54630.19, -50503.21, -56607.51, -64790.17, 0.02, 0.69, 0.67
157, -15166.95, -31203.17, -187500.02, -28955.75, -54625.20, -50503.18, -56604.96, -64787.16, 0.00, 0.00, 0.00
158, -15162.73, -31203.53, -187500.02, -28951.70, -54617.54, -50491.63, -56598.15, -64780.20, 0.00, 0.00, 0.00
159, -15174.51, -31209.09, -187500.02, -28954.92, -54624.40, -50485.68, -56601.28, -64786.95, 0.00, 0.00, 0.00
160, -15167.38, -31199.59, -187500.02, -28943.74, -54619.91, -50482.40, -56595.38, -64782.24, 0.00, 0.00, 0.00
161, -15170.84, -31203.71, -187500.02, -28947.74, -54624.29, -50490.71, -56602.75, -64788.36, 0.00, 0.00, 0.00
162, -15171.33, -31205.04, -187500.02, -28955.23, -54625.23, -50493.62, -56604.88, -64790.39, 0.00, 0.00, 0.00
163, -15167.92, -31202.56, -187500.02, -28950.94, -54618.54, -50490.80, -56599.78, -64784.29, 0.00, 0.00, 0.00
164, -15176.30, -31209.83, -187500.02, -28955.50, -54627.50, -50498.89, -56607.55, -64794.04, 0.00, 0.00, 0.00
165, -15171.67, -31204.24, -187500.02, -28948.57, -54622.48, -50488.77, -56598.57, -64789.59, 0.00, 0.00, 0.00
166, -15176.10, -31208.85, -187500.02, -28956.88, -54620.53, -50492.05, -56601.72, -64787.18, 0.02, 0.68, 0.67
167, -15184.66, -31217.88, -187500.02, -28962.81, -54629.88, -50496.63, -56606.06, -64797.86, 0.00, 0.00, 0.00
168, -15179.63, -31215.48, -187500.02, -28954.98, -54628.60, -50496.93, -56607.69, -64797.44, 0.00, 0.00, 0.00
169, -15169.28, -31206.30, -187500.02, -28944.03, -54615.19, -50489.86, -56597.45, -64782.66, 0.00, 0.00, 0.00
170, -15165.79, -31205.09, -187500.02, -28945.84, -54613.34, -50485.39, -56592.67, -64781.79, 0.00, 0.00, 0.00
171, -15183.14, -31222.77, -187500.02, -28960.91, -54622.41, -50498.98, -56605.93, -64792.92, 0.00, 0.00, 0.00
172, -15181.30, -31220.83, -187500.02, -28958.09, -54623.19, -50500.25, -56607.85, -64795.11, 0.00, 0.00, 0.00
173, -15180.16, -31220.40, -187500.02, -28953.98, -54622.50, -50498.38, -56607.04, -64794.82, 0.00, 0.00, 0.00
174, -15195.39, -31234.55, -187500.02, -28964.91, -54631.55, -50505.78, -56614.22, -64803.85, 0.00, 0.00, 0.00
175, -15206.38, -31247.69, -187500.02, -28971.48, -54635.35, -50511.45, -56619.25, -64809.02, 0.00, 0.00, 0.00
176, -15225.31, -31266.49, -187500.02, -28975.71, -54640.98, -50519.32, -56624.61, -64813.60, 0.00, 0.68, 0.67
177, -15219.50, -31262.02, -187500.02, -28960.80, -54629.02, -50508.37, -56612.70, -64802.13, 0.00, 0.00, 0.00
178, -15218.27, -31262.82, -187500.02, -28950.07, -54618.30, -50494.09, -56600.52, -64789.17, 0.00, 0.00, 0.00
179, -15240.69, -31287.61, -187500.02, -28963.52, -54626.57, -50500.79, -56607.07, -64797.86, 0.00, 0.00, 0.00
180, -15261.30, -31305.76, -187500.02, -28968.84, -54632.60, -50513.09, -56618.11, -64807.32, 0.00, 0.00, 0.00
181, -15272.10, -31317.97, -187500.02, -28963.99, -54629.34, -50514.09, -56619.47, -64809.93, 0.00, 0.00, 0.00
182, -15289.98, -31346.33, -187500.02, -28977.11, -54632.87, -50511.01, -56620.52, -64822.65, 0.00, 0.00, 0.00
183, -15305.49, -31357.06, -187500.02, -28990.35, -54649.36, -50521.51, -56625.53, -64821.80, 0.00, 0.00, 0.00
184, -15327.89, -31373.98, -187500.02, -28983.24, -54656.83, -50507.79, -56610.91, -64812.03, 0.00, 0.00, 0.00
185, -15333.54, -31380.95, -187500.02, -28964.24, -54633.05, -50489.93, -56588.16, -64788.16, 0.00, 0.00, 0.00
186, -15338.93, -31386.97, -187500.02, -28965.60, -54628.80, -50487.45, -56587.13, -64785.90, -0.00, 0.69, 0.66
187, -15355.13, -31394.97, -187500.02, -28971.91, -54633.52, -50495.47, -56595.22, -64793.44, 0.00, 0.00, 0.00
188, -15366.09, -31402.77, -187500.02, -28966.16, -54627.50, -50491.23, -56591.39, -64786.82, 0.00, 0.00, 0.00
189, -15368.97, -31403.08, -187500.02, -28959.37, -54633.54, -50488.95, -56594.21, -64794.73, 0.00, 0.00, 0.00
190, -15360.36, -31390.54, -187500.02, -28951.45, -54637.68, -50478.20, -56592.98, -64802.78, 0.00, 0.00, 0.00
191, -15380.82, -31410.66, -187500.02, -28970.27, -54654.89, -50491.34, -56613.21, -64822.87, 0.00, 0.00, 0.00
192, -15398.03, -31424.29, -187500.02, -28987.80, -54664.61, -50513.22, -56632.99, -64834.34, 0.00, 0.00, 0.00
193, -15419.22, -31444.88, -187500.02, -29001.14, -54674.91, -50530.79, -56646.11, -64840.64, 0.00, 0.00, 0.00
194, -15427.26, -31453.31, -187500.02, -29001.12, -54675.81, -50531.68, -56644.06, -64841.89, 0.00, 0.00, 0.00
195, -15439.44, -31462.56, -187500.02, -28999.42, -54668.48, -50527.50, -56637.13, -64833.56, 0.00, 0.00, 0.00
196, -15456.10, -31480.84, -187500.02, -29009.41, -54670.38, -50533.40, -56636.86, -64832.08, -0.00, 0.69, 0.66
197, -15457.19, -31480.24, -187500.02, -29011.31, -54673.06, -50540.85, -56645.33, -64836.64, 0.00, 0.00, 0.00
198, -15456.10, -31476.71, -187500.02, -29003.76, -54670.67, -50537.63, -56644.14, -64835.39, 0.00, 0.00, 0.00
199, -15452.79, -31471.72, -187500.02, -28996.04, -54663.58, -50522.43, -56627.67, -64825.24, 0.00, 0.00, 0.00
200, -15478.85, -31492.27, -187500.02, -29019.54, -54681.64, -50537.11, -56643.03, -64841.22, 0.00, 0.00, 0.00
201, -15472.61, -31484.93, -187500.02, -29014.31, -54677.30, -50533.61, -56642.20, -64838.34, 0.00, 0.00, 0.00
202, -15457.04, -31470.96, -187500.02, -28995.71, -54662.57, -50521.29, -56632.30, -64825.45, 0.00, 0.00, 0.00
203, -15460.03, -31472.89, -187500.02, -29003.09, -54667.92, -50531.68, -56642.16, -64831.14, 0.00, 0.00, 0.00
204, -15448.12, -31464.48, -187500.02, -29001.32, -54661.70, -50518.43, -56626.31, -64821.44, 0.00, 0.00, 0.00
205, -15449.30, -31466.25, -187500.02, -29000.36, -54658.15, -50514.76, -56619.56, -64814.78, 0.00, 0.00, 0.00
206, -15434.64, -31445.13, -187500.02, -28992.31, -54656.88, -50508.59, -56616.45, -64812.93, 0.00, 0.00, 0.00
207, -15425.18, -31435.98, -187500.02, -28991.37, -54660.72, -50502.67, -56611.82, -64813.64, 0.00, 0.68, 0.66
208, -15420.29, -31430.73, -187500.02, -28992.80, -54658.51, -50502.00, -56610.89, -64811.52, 0.00, 0.00, 0.00
209, -15416.47, -31427.29, -187500.02, -28997.50, -54666.24, -50514.76, -56624.28, -64821.06, 0.00, 0.00, 0.00
210, -15401.83, -31408.80, -187500.02, -28985.96, -54661.77, -50510.96, -56623.88, -64820.44, 0.00, 0.00, 0.00
211, -15378.25, -31388.49, -187500.02, -28970.12, -54650.39, -50497.30, -56611.27, -64813.33, 0.00, 0.00, 0.00
212, -15383.83, -31398.08, -187500.02, -28981.23, -54661.68, -50507.63, -56619.98, -64823.34, 0.00, 0.00, 0.00
213, -15383.50, -31396.96, -187500.02, -28986.39, -54663.54, -50507.54, -56618.11, -64816.84, 0.00, 0.00, 0.00
214, -15366.64, -31379.70, -187500.02, -28982.52, -54660.34, -50510.89, -56627.32, -64817.80, 0.00, 0.00, 0.00
215, -15358.13, -31370.18, -187500.02, -28977.38, -54658.35, -50507.50, -56623.16, -64816.57, 0.00, 0.00, 0.00
216, -15357.03, -31366.18, -187500.02, -28978.07, -54656.29, -50502.56, -56612.16, -64810.91, 0.00, 0.00, 0.00
217, -15349.93, -31356.17, -187500.02, -28979.28, -54654.37, -50502.67, -56612.81, -64807.74, 0.01, 0.68, 0.66
218, -15339.71, -31350.91, -187500.02, -28976.00, -54656.50, -50505.38, -56615.29, -64808.59, 0.00, 0.00, 0.00
219, -15325.32, -31334.96, -187500.02, -28961.69, -54647.71, -50498.31, -56611.91, -64806.29, 0.00, 0.00, 0.00
220, -15321.81, -31327.73, -187500.02, -28969.09, -54651.27, -50504.77, -56622.98, -64816.39, 0.00, 0.00, 0.00
221, -15321.25, -31334.89, -187500.02, -28974.59, -54652.56, -50502.36, -56614.95, -64814.04, 0.00, 0.00, 0.00
222, -15305.22, -31317.52, -187500.02, -28957.49, -54638.75, -50488.86, -56597.61, -64792.68, 0.00, 0.00, 0.00
223, -15301.40, -31309.25, -187500.02, -28952.59, -54641.81, -50487.74, -56591.48, -64791.09, 0.00, 0.00, 0.00
224, -15300.04, -31311.53, -187500.02, -28956.19, -54642.93, -50494.87, -56600.74, -64796.12, 0.00, 0.00, 0.00
225, -15296.08, -31306.05, -187500.02, -28962.76, -54642.10, -50496.59, -56604.76, -64799.83, 0.00, 0.00, 0.00
226, -15298.52, -31313.74, -187500.02, -28970.59, -54653.37, -50500.01, -56607.18, -64808.05, 0.00, 0.00, 0.00
227, -15297.24, -31312.22, -187500.02, -28968.57, -54654.02, -50507.45, -56615.87, -64810.91, 0.02, 0.69, 0.67
228, -15285.96, -31297.38, -187500.02, -28962.43, -54649.70, -50497.37, -56609.23, -64807.41, 0.00, 0.00, 0.00
229, -15281.28, -31292.13, -187500.02, -28970.81, -54650.44, -50496.01, -56606.84, -64807.63, 0.00, 0.00, 0.00
230, -15279.74, -31291.48, -187500.02, -28968.46, -54648.80, -50495.85, -56606.86, -64807.76, 0.00, 0.00, 0.00
231, -15271.76, -31279.70, -187500.02, -28953.04, -54640.49, -50490.29, -56603.29, -64803.09, 0.00, 0.00, 0.00
232, -15275.72, -31287.79, -187500.02, -28957.40, -54649.77, -50494.60, -56611.42, -64816.32, 0.00, 0.00, 0.00
233, -15273.80, -31294.12, -187500.02, -28966.16, -54656.18, -50497.11, -56617.79, -64828.13, 0.00, 0.00, 0.00
234, -15261.52, -31283.61, -187500.02, -28955.50, -54641.00, -50489.37, -56605.05, -64809.42, 0.00, 0.00, 0.00
235, -15264.59, -31285.27, -187500.02, -28957.29, -54643.38, -50495.43, -56608.27, -64808.57, 0.00, 0.00, 0.00
236, -15265.03, -31279.63, -187500.02, -28951.19, -54637.56, -50489.71, -56601.01, -64800.36, 0.00, 0.00, 0.00
237, -15275.23, -31292.98, -187500.02, -28968.29, -54652.74, -50505.46, -56623.09, -64821.87, 0.01, 0.70, 0.66
238, -15276.97, -31299.84, -187500.02, -28974.65, -54656.27, -50509.29, -56622.69, -64822.31, 0.00, 0.00, 0.00
239, -15261.12, -31280.95, -187500.02, -28961.80, -54649.61, -50499.68, -56610.06, -64813.64, 0.00, 0.00, 0.00
240, -15238.86, -31251.85, -187500.02, -28941.51, -54632.42, -50481.93, -56591.91, -64796.68, 0.00, 0.00, 0.00
241, -15229.56, -31247.98, -187500.02, -28935.25, -54625.00, -50475.51, -56584.58, -64789.79, 0.00, 0.00, 0.00
242, -15252.83, -31271.50, -187500.02, -28960.44, -54645.39, -50500.93, -56610.46, -64813.51, 0.00, 0.00, 0.00
243, -15253.63, -31273.93, -187500.02, -28961.09, -54654.24, -50509.15, -56623.92, -64828.04, 0.00, 0.00, 0.00
244, -15244.05, -31261.62, -187500.02, -28947.52, -54642.35, -50490.58, -56598.28, -64808.77, 0.00, 0.00, 0.00
245, -15256.61, -31276.73, -187500.02, -28967.99, -54653.43, -50503.07, -56608.72, -64817.51, 0.00, 0.00, 0.00
246, -15253.19, -31274.00, -187500.02, -28971.82, -54650.59, -50504.93, -56613.59, -64818.07, 0.00, 0.00, 0.00
247, -15247.73, -31267.27, -187500.02, -28961.58, -54642.88, -50496.28, -56602.57, -64808.75, 0.00, 0.69, 0.66
248, -15243.02, -31268.55, -187500.02, -28956.66, -54640.71, -50495.67, -56605.37, -64809.82, 0.00, 0.00, 0.00
249, -15239.58, -31265.31, -187500.02, -28961.91, -54641.88, -50500.50, -56605.79, -64810.11, 0.00, 0.00, 0.00
250, -15245.72, -31268.90, -187500.02, -28970.52, -54646.48, -50503.99, -56608.29, -64814.00, 0.00, 0.00, 0.00
251, -15257.97, -31272.68, -187500.02, -28980.24, -54658.24, -50518.96, -56623.38, -64825.45, 0.00, 0.00, 0.00
252, -15242.70, -31254.80, -187500.02, -28962.99, -54642.68, -50501.26, -56604.05, -64807.34, 0.00, 0.00, 0.00
253, -15229.50, -31249.15, -187500.02, -28946.65, -54629.00, -50484.92, -56587.62, -64792.00, 0.00, 0.00, 0.00
254, -15244.34, -31266.45, -187500.02, -28966.92, -54643.80, -50505.71, -56609.05, -64808.93, 0.00, 0.00, 0.00
255, -15253.92, -31276.06, -187500.02, -28978.21, -54654.35, -50517.33, -56621.53, -64821.98, 0.00, 0.00, 0.00
0, -15242.26, -31262.31, -187500.02, -28964.11, -54644.54, -50504.43, -56607.47, -64810.00, 0.00, 0.00, 0.00
1, -15243.60, -31266.36, -187500.02, -28968.69, -54649.07, -50500.61, -56602.89, -64808.70, -0.01, 0.69, 0.67
2, -15251.87, -31272.12, -187500.02, -28978.28, -54659.16, -50506.67, -56611.29, -64822.49, 0.00, 0.00, 0.00
3, -15261.12, -31278.94, -187500.02, -28980.31, -54656.47, -50510.98, -56612.65, -64818.07, 0.00, 0.00, 0.00
4, -15254.84, -31272.01, -187500.02, -28971.75, -54649.66, -50508.04, -56607.02, -64808.30, 0.00, 0.00, 0.00
5, -15253.12, -31273.76, -187500.02, -28968.17, -54652.45, -50505.02, -56606.48, -64810.49, 0.00, 0.00, 0.00
6, -15258.78, -31275.74, -187500.02, -28974.39, -54652.61, -50507.97, -56608.50, -64810.51, 0.00, 0.00, 0.00
7, -15250.64, -31268.23, -187500.02, -28970.97, -54651.40, -50508.28, -56611.60, -64813.78, 0.00, 0.00, 0.00
8, -15252.58, -31270.00, -187500.02, -28968.02, -54657.90, -50507.95, -56612.43, -64821.89, 0.00, 0.00, 0.00
9, -15242.35, -31257.82, -187500.02, -28953.15, -54644.83, -50495.54, -56597.30, -64803.89, 0.00, 0.00, 0.00
10, -15255.38, -31270.85, -187500.02, -28969.89, -54653.46, -50504.68, -56602.04, -64807.07, 0.00, 0.00, 0.00
11, -15255.42, -31274.02, -187500.02, -28974.50, -54655.54, -50504.26, -56603.76, -64813.08, -0.00, 0.69, 0.67
12, -15252.65, -31269.44, -187500.02, -28968.55, -54655.69, -50506.63, -56607.42, -64816.48, 0.00, 0.00, 0.00
13, -15252.47, -31267.88, -187500.02, -28966.07, -54652.67, -50506.52, -56608.16, -64813.82, 0.00, 0.00, 0.00
14, -15251.82, -31266.18, -187500.02, -28964.22, -54648.79, -50503.90, -56602.50, -64804.25, 0.00, 0.00, 0.00
15, -15255.13, -31270.13, -187500.02, -28967.59, -54651.82, -50503.47, -56602.50, -64805.80, 0.00, 0.00, 0.00
16, -15261.17, -31273.60, -187500.02, -28974.59, -54660.21, -50514.43, -56613.41, -64817.20, 0.00, 0.00, 0.00
17, -15253.81, -31266.36, -187500.02, -28958.49, -54647.40, -50500.43, -56597.77, -64804.97, 0.00, 0.00, 0.00
18, -15258.69, -31274.47, -187500.02, -28962.88, -54651.46, -50503.83, -56602.24, -64811.14, 0.00, 0.00, 0.00
19, -15253.03, -31270.31, -187500.02, -28959.08, -54642.08, -50498.78, -56592.92, -64800.01, 0.00, 0.00, 0.00
20, -15255.31, -31270.20, -187500.02, -28959.01, -54643.20, -50497.15, -56590.86, -64800.59, 0.00, 0.00, 0.00
21, -15263.49, -31279.95, -187500.02, -28967.68, -54654.06, -50507.90, -56604.32, -64813.48, 0.01, 0.69, 0.67
22, -15257.81, -31271.14, -187500.02, -28965.87, -54656.43, -50508.04, -56606.93, -64818.20, 0.00, 0.00, 0.00
23, -15265.88, -31283.52, -187500.02, -28974.70, -54662.66, -50513.80, -56612.54, -64821.98, 0.00, 0.00, 0.00
24, -15259.36, -31281.09, -187500.02, -28969.58, -54657.93, -50509.66, -56604.16, -64815.27, 0.00, 0.00, 0.00
25, -15258.57, -31273.42, -187500.02, -28958.83, -54652.83, -50500.14, -56596.98, -64810.13, 0.00, 0.00, 0.00
26, -15252.76, -31264.55, -187500.02, -28945.66, -54638.61, -50488.10, -56585.72, -64791.69, 0.00, 0.00, 0.00
27, -15253.59, -31265.08, -187500.02, -28948.75, -54633.61, -50489.59, -56587.29, -64788.59, 0.00, 0.00, 0.00
28, -15258.08, -31269.49, -187500.02, -28958.56, -54641.34, -50491.89, -56585.59, -64796.05, 0.00, 0.00, 0.00
29, -15260.03, -31272.55, -187500.02, -28964.11, -54649.72, -50497.60, -56592.85, -64805.26, 0.00, 0.00, 0.00
30, -15244.56, -31256.59, -187500.02, -28952.91, -54644.13, -50491.11, -56588.71, -64800.77, 0.00, 0.00, 0.00
31, -15250.21, -31261.75, -187500.02, -28957.73, -54648.32, -50494.80, -56593.03, -64805.84, 0.00, 0.00, 0.00
32, -15248.54, -31254.04, -187500.02, -28958.18, -54642.57, -50491.27, -56589.59, -64800.79, 0.01, 0.69, 0.67
33, -15260.63, -31272.66, -187500.02, -28960.26, -54647.09, -50496.48, -56596.61, -64805.39, 0.00, 0.00, 0.00
34, -15256.76, -31272.37, -187500.02, -28954.56, -54645.30, -50491.38, -56591.20, -64803.16, 0.00, 0.00, 0.00
35, -15257.28, -31279.30, -187500.02, -28967.70, -54656.43, -50503.61, -56604.79, -64815.65, 0.00, 0.00, 0.00
36, -15278.85, -31289.51, -187500.02, -28974.45, -54655.18, -50506.31, -56603.27, -64811.70, 0.00, 0.00, 0.00
37, -15268.81, -31274.27, -187500.02, -28969.78, -54657.81, -50504.12, -56606.46, -64817.08, 0.00, 0.00, 0.00
38, -15257.26, -31270.16, -187500.02, -28974.77, -54666.57, -50515.48, -56617.28, -64826.56, 0.00, 0.00, 0.00
39, -15274.06, -31292.73, -187500.02, -28981.34, -54664.12, -50519.52, -56616.65, -64821.82, 0.00, 0.00, 0.00
40, -15277.55, -31296.26, -187500.02, -28975.86, -54656.38, -50504.57, -56602.30, -64812.37, 0.00, 0.00, 0.00
41, -15259.98, -31279.14, -187500.02, -28958.05, -54638.55, -50489.88, -56586.12, -64793.10, 0.00, 0.00, 0.00
42, -15262.93, -31278.72, -187500.02, -28959.41, -54639.26, -50495.96, -56590.59, -64797.04, 0.00, 0.69, 0.67
43, -15270.40, -31287.17, -187500.02, -28979.46, -54656.43, -50514.98, -56607.13, -64814.43, 0.00, 0.00, 0.00
44, -15266.96, -31291.95, -187500.02, -28983.75, -54658.11, -50513.46, -56610.08, -64816.50, 0.00, 0.00, 0.00
45, -15270.33, -31293.51, -187500.02, -28982.41, -54656.63, -50512.15, -56605.97, -64812.03, 0.00, 0.00, 0.00
46, -15254.01, -31271.97, -187500.02, -28958.99, -54642.19, -50492.48, -56586.03, -64794.84, 0.00, 0.00, 0.00
47, -15249.08, -31269.84, -187500.02, -28954.65, -54643.73, -50488.07, -56584.58, -64795.83, 0.00, 0.00, 0.00
48, -15250.62, -31282.52, -187500.02, -28965.24, -54641.95, -50496.52, -56587.37, -64793.75, 0.00, 0.00, 0.00
49, -15264.16, -31295.62, -187500.02, -28978.12, -54658.35, -50509.78, -56605.48, -64814.51, 0.00, 0.00, 0.00
50, -15263.83, -31292.53, -187500.02, -28971.19, -54660.05, -50504.26, -56604.45, -64818.20, 0.00, 0.00, 0.00
51, -15243.46, -31275.32, -187500.02, -28958.74, -54650.82, -50495.45, -56595.17, -64811.90, 0.00, 0.00, 0.00
52, -15251.31, -31279.03, -187500.02, -28963.32, -54651.82, -50490.96, -56592.36, -64812.34, 0.00, 0.69, 0.67
53, -15251.06, -31283.28, -187500.02, -28972.29, -54651.64, -50499.65, -56598.44, -64811.65, 0.00, 0.00, 0.00
54, -15251.89, -31282.54, -187500.02, -28973.22, -54652.11, -50503.21, -56601.10, -64811.03, 0.00, 0.00, 0.00
55, -15235.08, -31266.09, -187500.02, -28959.77, -54639.44, -50491.88, -56586.68, -64795.74, 0.00, 0.00, 0.00
56, -15239.67, -31276.17, -187500.02, -28973.47, -54646.66, -50500.95, -56594.26, -64801.75, 0.00, 0.00, 0.00
57, -15248.76, -31285.11, -187500.02, -28984.20, -54653.46, -50507.14, -56601.90, -64810.80, 0.00, 0.00, 0.00
58, -15241.86, -31279.25, -187500.02, -28976.85, -54655.55, -50505.08, -56601.63, -64812.17, 0.00, 0.00, 0.00
59, -15223.19, -31260.41, -187500.02, -28956.73, -54644.45, -50490.44, -56589.86, -64802.06, 0.00, 0.00, 0.00
60, -15225.43, -31260.12, -187500.02, -28959.48, -54648.14, -50489.95, -56591.08, -64804.57, 0.00, 0.00, 0.00
61, -15234.43, -31270.36, -187500.02, -28976.42, -54661.79, -50503.95, -56606.46, -64817.91, 0.00, 0.00, 0.00
62, -15238.48, -31282.03, -187500.02, -28980.53, -54667.25, -50512.97, -56614.26, -64821.53, 0.00, 0.68, 0.68
63, -15224.98, -31266.04, -187500.02, -28964.24, -54654.13, -50500.68, -56602.41, -64809.13, 0.00, 0.00, 0.00
64, -15233.18, -31275.32, -187500.02, -28975.62, -54663.63, -50513.04, -56615.83, -64819.97, 0.00, 0.00, 0.00
65, -15223.57, -31271.14, -187500.02, -28974.56, -54655.58, -50508.14, -56608.07, -64811.14, 0.00, 0.00, 0.00
66, -15213.31, -31263.52, -187500.02, -28968.89, -54652.07, -50503.36, -56601.52, -64806.22, 0.00, 0.00, 0.00
67, -15200.26, -31249.77, -187500.02, -28953.51, -54643.89, -50492.41, -56589.03, -64795.89, 0.00, 0.00, 0.00
68, -15191.85, -31240.94, -187500.02, -28941.87, -54637.61, -50483.60, -56580.36, -64788.29, 0.00, 0.00, 0.00
69, -15213.87, -31255.83, -187500.02, -28963.77, -54654.30, -50500.21, -56596.36, -64804.72, 0.00, 0.00, 0.00
70, -15212.57, -31252.59, -187500.02, -28962.58, -54653.95, -50499.38, -56595.66, -64804.93, 0.00, 0.00, 0.00
71, -15200.53, -31242.20, -187500.02, -28951.72, -54649.10, -50492.77, -56589.56, -64801.97, 0.00, 0.00, 0.00
72, -15189.44, -31238.51, -187500.02, -28942.78, -54642.86, -50485.46, -56582.19, -64796.83, 0.00, 0.68, 0.68
73, -15194.31, -31244.88, -187500.02, -28949.51, -54647.75, -50487.56, -56585.72, -64797.30, 0.00, 0.00, 0.00
74, -15186.02, -31240.09, -187500.02, -28942.76, -54642.46, -50478.26, -56573.36, -64788.56, 0.00, 0.00, 0.00
75, -15199.07, -31250.20, -187500.02, -28948.41, -54652.16, -50489.17, -56583.17, -64798.51, 0.00, 0.00, 0.00
76, -15201.85, -31255.31, -187500.02, -28950.87, -54656.14, -50492.61, -56586.05, -64802.31, 0.00, 0.00, 0.00
77, -15206.92, -31260.66, -187500.02, -28961.47, -54661.30, -50502.36, -56596.14, -64809.30, 0.00, 0.00, 0.00
78, -15198.09, -31249.66, -187500.02, -28951.77, -54649.81, -50493.37, -56585.90, -64796.83, 0.00, 0.00, 0.00
79, -15202.63, -31255.20, -187500.02, -28954.47, -54657.68, -50499.99, -56590.50, -64806.36, 0.00, 0.00, 0.00
80, -15191.68, -31248.70, -187500.02, -28949.06, -54656.07, -50498.31, -56588.78, -64806.80, 0.00, 0.00, 0.00
81, -15184.10, -31241.17, -187500.02, -28941.15, -54647.91, -50487.36, -56577.76, -64797.62, 0.00, 0.00, 0.00
82, -15195.52, -31254.71, -187500.02, -28961.38, -54652.18, -50495.74, -56584.07, -64797.41, 0.01, 0.70, 0.67
83, -15186.87, -31244.03, -187500.02, -28971.12, -54660.36, -50506.00, -56593.32, -64803.47, 0.00, 0.00, 0.00
84, -15169.01, -31221.43, -187500.02, -28939.88, -54639.78, -50476.05, -56562.12, -64779.80, 0.00, 0.00, 0.00
85, -15175.58, -31226.71, -187500.02, -28919.49, -54624.00, -50452.87, -56539.61, -64758.46, 0.00, 0.00, 0.00
86, -15185.57, -31235.51, -187500.02, -28925.10, -54631.89, -50456.22, -56546.29, -64766.79, 0.00, 0.00, 0.00
87, -15172.18, -31218.50, -187500.02, -28914.64, -54630.77, -50452.33, -56546.74, -64769.79, 0.00, 0.00, 0.00
88, -15151.73, -31193.40, -187500.02, -28903.06, -54623.39, -50445.81, -56543.03, -64763.73, 0.00, 0.00, 0.00
89, -15154.77, -31192.80, -187500.02, -28910.39, -54633.92, -50455.53, -56557.38, -64778.82, 0.00, 0.00, 0.00
90, -15167.36, -31205.38, -187500.02, -28928.54, -54651.33, -50477.97, -56581.05, -64798.49, 0.00, 0.00, 0.00
91, -15172.90, -31212.02, -187500.02, -28923.22, -54650.95, -50477.57, -56576.00, -64794.13, 0.00, 0.00, 0.00
92, -15159.78, -31199.57, -187500.02, -28909.28, -54640.52, -50465.30, -56563.08, -64784.20, 0.01, 0.69, 0.66
93, -15147.69, -31186.38, -187500.02, -28901.27, -54632.18, -50461.09, -56561.78, -64777.21, 0.00, 0.00, 0.00
94, -15160.74, -31198.21, -187500.02, -28920.50, -54645.30, -50477.97, -56577.43, -64791.00, 0.00, 0.00, 0.00
95, -15165.93, -31198.18, -187500.02, -28929.39, -54651.27, -50484.50, -56583.84, -64797.53, 0.00, 0.00, 0.00
96, -15155.02, -31188.88, -187500.02, -28919.89, -54641.61, -50474.93, -56572.71, -64788.41, 0.00, 0.00, 0.00
97, -15154.28, -31190.36, -187500.02, -28917.59, -54640.83, -50476.27, -56575.82, -64789.34, 0.00, 0.00, 0.00
98, -15168.92, -31203.35, -187500.02, -28926.53, -54642.68, -50480.03, -56574.95, -64789.12, 0.00, 0.00, 0.00
99, -15167.76, -31201.11, -187500.02, -28921.08, -54635.91, -50469.41, -56561.24, -64779.64, 0.00, 0.00, 0.00
100, -15135.64, -31170.20, -187500.02, -28889.27, -54611.55, -50440.31, -56534.00, -64753.09, 0.00, 0.00, 0.00
101, -15128.98, -31164.61, -187500.02, -28886.43, -54609.80, -50442.10, -56537.71, -64754.61, 0.00, 0.00, 0.00
102, -15164.07, -31199.08, -187500.02, -28923.47, -54637.81, -50476.14, -56572.46, -64786.39, 0.00, 0.69, 0.66
103, -15155.22, -31191.81, -187500.02, -28913.52, -54630.32, -50464.16, -56563.52, -64780.14, 0.00, 0.00, 0.00
104, -15154.79, -31190.99, -187500.02, -28906.71, -54627.46, -50457.88, -56554.56, -64773.36, 0.00, 0.00, 0.00
105, -15153.97, -31186.38, -187500.02, -28902.35, -54621.65, -50454.84, -56553.31, -64768.07, 0.00, 0.00, 0.00
106, -15151.78, -31186.38, -187500.02, -28902.68, -54618.74, -50450.79, -56548.32, -64764.31, 0.00, 0.00, 0.00
107, -15154.33, -31190.23, -187500.02, -28904.16, -54619.44, -50445.32, -56540.86, -64759.73, 0.00, 0.00, 0.00
108, -15159.42, -31193.94, -187500.02, -28904.20, -54623.04, -50447.98, -56548.55, -64766.90, 0.00, 0.00, 0.00
109, -15150.66, -31181.82, -187500.02, -28894.10, -54617.47, -50443.71, -56548.66, -64766.23, 0.00, 0.00, 0.00
110, -15149.81, -31179.61, -187500.02, -28893.41, -54618.95, -50440.80, -56550.96, -64771.31, 0.00, 0.00, 0.00
111, -15159.02, -31191.57, -187500.02, -28903.31, -54622.70, -50445.96, -56553.11, -64774.37, 0.00, 0.00, 0.00
112, -15163.69, -31199.26, -187500.02, -28909.59, -54620.40, -50455.60, -56560.62, -64769.90, 0.00, 0.00, 0.00
113, -15162.73, -31196.57, -187500.02, -28910.75, -54621.09, -50455.17, -56560.55, -64773.72, -0.01, 0.69, 0.67
114, -15150.84, -31180.32, -187500.02, -28892.85, -54617.34, -50442.99, -56548.28, -64767.29, 0.00, 0.00, 0.00
115, -15158.46, -31189.56, -187500.02, -28898.95, -54619.21, -50448.40, -56551.57, -64768.71, 0.00, 0.00, 0.00
116, -15158.57, -31190.27, -187500.02, -28900.65, -54609.78, -50435.59, -56546.65, -64767.39, 0.00, 0.00, 0.00
117, -15152.49, -31185.87, -187500.02, -28897.34, -54608.64, -50433.18, -56543.43, -64768.36, 0.00, 0.00, 0.00
118, -15146.91, -31181.29, -187500.02, -28891.55, -54622.83, -50424.73, -56531.07, -64754.34, 0.00, 0.00, 0.00
119, -15161.81, -31197.20, -187500.02, -28910.28, -54633.99, -50442.27, -56545.08, -64767.87, 0.00, 0.00, 0.00
120, -15167.27, -31204.53, -187500.02, -28917.32, -54637.43, -50456.42, -56555.93, -64776.05, 0.00, 0.00, 0.00
121, -15152.67, -31188.33, -187500.02, -28903.58, -54624.69, -50445.09, -56545.29, -64764.78, 0.00, 0.00, 0.00
122, -15153.23, -31189.82, -187500.02, -28904.85, -54626.75, -50446.79, -56545.38, -64766.88, 0.00, 0.00, 0.00
123, -15159.96, -31195.12, -187500.02, -28911.51, -54631.55, -50451.15, -56548.48, -64770.77, -0.00, 0.68, 0.67
124, -15158.48, -31195.63, -187500.02, -28911.36, -54625.00, -50448.46, -56544.52, -64762.23, 0.00, 0.00, 0.00
125, -15158.93, -31193.96, -187500.02, -28909.90, -54622.34, -50446.81, -56541.73, -64759.64, 0.00, 0.00, 0.00
126, -15156.90, -31192.15, -187500.02, -28911.11, -54622.95, -50449.54, -56541.91, -64758.95, 0.00, 0.00, 0.00
127, -15157.52, -31196.71, -187500.02, -28910.13, -54617.76, -50448.33, -56537.64, -64754.36, 0.00, 0.00, 0.00
128, -15157.83, -31199.55, -187500.02, -28914.75, -54615.86, -50437.69, -56535.76, -64752.69, 0.00, 0.00, 0.00
129, -15160.12, -31199.10, -187500.02, -28914.42, -54620.49, -50449.36, -56545.04, -64761.63, 0.00, 0.00, 0.00
130, -15147.37, -31184.75, -187500.02, -28906.19, -54606.05, -50443.66, -56542.74, -64762.43, 0.00, 0.00, 0.00
131, -15156.90, -31197.71, -187500.02, -28916.32, -54625.85, -50450.84, -56549.38, -64766.79, 0.00, 0.00, 0.00
132, -15165.37, -31201.94, -187500.02, -28923.38, -54641.54, -50457.09, -56552.95, -64768.60, 0.00, 0.00, 0.00
133, -15175.18, -31212.56, -187500.02, -28932.61, -54649.72, -50461.95, -56561.45, -64779.11, -0.00, 0.69, 0.68
134, -15159.78, -31202.14, -187500.02, -28914.89, -54639.04, -50451.04, -56546.29, -64767.33, 0.00, 0.00, 0.00
135, -15159.22, -31201.83, -187500.02, -28916.27, -54630.93, -50454.46, -56551.18, -64767.48, 0.00, 0.00, 0.00
136, -15162.75, -31205.98, -187500.02, -28927.43, -54641.70, -50471.54, -56555.32, -64771.15, 0.00, 0.00, 0.00
137, -15160.14, -31202.99, -187500.02, -28921.35, -54667.65, -50478.48, -56555.45, -64778.64, 0.00, 0.00, 0.00
138, -15160.12, -31199.50, -187500.02, -28920.45, -54616.62, -50459.64, -56553.31, -64770.88, 0.00, 0.00, 0.00
139, -15160.65, -31202.77, -187500.02, -28917.55, -54628.76, -50459.78, -56554.65, -64773.07, 0.00, 0.00, 0.00
140, -15165.52, -31210.46, -187500.02, -28936.19, -54641.45, -50466.04, -56558.32, -64777.88, 0.00, 0.00, 0.00
141, -15169.35, -31214.97, -187500.02, -28934.47, -54636.73, -50474.57, -56560.06, -64777.16, 0.00, 0.00, 0.00
142, -15166.49, -31214.14, -187500.02, -28919.45, -54625.56, -50456.58, -56561.02, -64781.10, 0.00, 0.00, 0.00
143, -15163.47, -31207.86, -187500.02, -28918.17, -54645.90, -50459.22, -56558.54, -64777.10, -0.00, 0.68, 0.68
144, -15162.17, -31207.59, -187500.02, -28917.81, -54647.82, -50457.77, -56551.27, -64768.69, 0.00, 0.00, 0.00
145, -15160.83, -31204.35, -187500.02, -28916.16, -54635.91, -50454.68, -56543.50, -64761.81, 0.00, 0.00, 0.00
146, -15156.87, -31199.39, -187500.02, -28908.61, -54637.74, -50451.48, -56540.21, -64760.76, 0.00, 0.00, 0.00
147, -15159.11, -31201.76, -187500.02, -28911.58, -54635.35, -50455.53, -56542.60, -64762.99, 0.00, 0.00, 0.00
148, -15159.53, -31202.23, -187500.02, -28912.56, -54632.45, -50452.49, -56537.75, -64759.06, 0.00, 0.00, 0.00
149, -15163.09, -31206.77, -187500.02, -28914.46, -54637.52, -50456.36, -56541.55, -64763.17, 0.00, 0.00, 0.00
150, -15158.04, -31202.50, -187500.02, -28910.10, -54641.72, -50455.62, -56542.22, -64766.01, 0.00, 0.00, 0.00
151, -15148.13, -31192.55, -187500.02, -28901.90, -54636.33, -50449.02, -56538.09, -64762.97, 0.00, 0.00, 0.00
152, -15155.24, -31197.87, -187500.02, -28916.07, -54642.23, -50464.11, -56547.41, -64770.55, 0.00, 0.00, 0.00
153, -15159.87, -31204.89, -187500.02, -28921.57, -54668.32, -50464.47, -56551.63, -64776.74, 0.00, 0.68, 0.68
154, -15160.00, -31203.12, -187500.02, -28912.92, -54655.82, -50459.31, -56544.03, -64769.50, 0.00, 0.00, 0.00
155, -15155.29, -31194.70, -187500.02, -28904.74, -54616.98, -50454.10, -56538.49, -64757.83, 0.00, 0.00, 0.00
156, -15166.71, -31210.90, -187500.02, -28925.01, -54642.35, -50480.72, -56552.84, -64771.60, 0.00, 0.00, 0.00
157, -15172.79, -31221.63, -187500.02, -28934.71, -54648.61, -50499.07, -56558.76, -64775.93, 0.00, 0.00, 0.00
158, -15170.55, -31214.21, -187500.02, -28933.44, -54649.43, -50460.49, -56553.87, -64776.67, 0.00, 0.00, 0.00
159, -15150.17, -31194.16, -187500.02, -28913.81, -54635.86, -50448.98, -56539.27, -64763.08, 0.00, 0.00, 0.00
160, -15141.25, -31180.28, -187500.02, -28911.78, -54627.04, -50456.82, -56542.56, -64762.99, 0.00, 0.00, 0.00
161, -15146.73, -31187.77, -187500.02, -28924.59, -54629.90, -50465.54, -56549.15, -64773.21, 0.00, 0.00, 0.00
162, -15151.82, -31198.29, -187500.02, -28908.54, -54638.01, -50450.61, -56531.16, -64752.82, 0.00, 0.00, 0.00
163, -15146.37, -31189.58, -187500.02, -28888.53, -54625.40, -50436.15, -56517.19, -64738.43, 0.00, 0.69, 0.67
164, -15142.48, -31187.43, -187500.02, -28895.13, -54627.26, -50445.05, -56529.15, -64746.36, 0.00, 0.00, 0.00
165, -15153.28, -31201.51, -187500.02, -28915.62, -54638.41, -50457.72, -56539.23, -64756.64, 0.00, 0.00, 0.00
166, -15160.43, -31207.59, -187500.02, -28927.98, -54651.18, -50474.13, -56552.21, -64770.77, 0.00, 0.00, 0.00
167, -15139.66, -31185.38, -187500.02, -28905.54, -54632.82, -50458.32, -56535.02, -64753.71, 0.00, 0.00, 0.00
168, -15149.27, -31191.28, -187500.02, -28904.11, -54638.99, -50445.52, -56536.39, -64758.77, 0.00, 0.00, 0.00
169, -15161.90, -31202.47, -187500.02, -28913.19, -54649.39, -50450.88, -56540.46, -64765.83, 0.00, 0.00, 0.00
170, -15165.73, -31206.70, -187500.02, -28918.22, -54654.46, -50455.55, -56543.41, -64768.31, 0.00, 0.00, 0.00
171, -15155.87, -31203.88, -187500.02, -28912.07, -54646.82, -50458.43, -56544.48, -64765.21, 0.00, 0.00, 0.00
172, -15158.08, -31201.83, -187500.02, -28907.24, -54646.97, -50457.63, -56537.42, -64762.70, 0.00, 0.00, 0.00
173, -15166.19, -31204.80, -187500.02, -28916.58, -54654.08, -50454.93, -56541.66, -64771.51, 0.01, 0.70, 0.66
174, -15169.64, -31206.99, -187500.02, -28918.75, -54655.76, -50456.31, -56545.91, -64773.09, 0.00, 0.00, 0.00
175, -15162.22, -31199.39, -187500.02, -28907.06, -54644.70, -50455.62, -56539.94, -64760.33, 0.00, 0.00, 0.00
176, -15155.58, -31187.03, -187500.02, -28901.95, -54638.26, -50452.36, -56540.05, -64766.28, 0.00, 0.00, 0.00
177, -15159.27, -31192.13, -187500.02, -28910.88, -54638.10, -50455.75, -56540.41, -64763.75, 0.00, 0.00, 0.00
178, -15160.94, -31196.87, -187500.02, -28915.38, -54651.49, -50459.22, -56539.50, -64752.38, 0.00, 0.00, 0.00
179, -15157.79, -31194.21, -187500.02, -28912.03, -54650.55, -50461.57, -56545.69, -64761.36, 0.00, 0.00, 0.00
180, -15156.43, -31191.66, -187500.02, -28913.01, -54652.45, -50465.45, -56548.37, -64769.07, 0.00, 0.00, 0.00
181, -15172.74, -31206.16, -187500.02, -28923.85, -54660.90, -50477.23, -56559.01, -64775.64, 0.00, 0.00, 0.00
182, -15166.40, -31199.77, -187500.02, -28917.26, -54649.59, -50484.41, -56553.13, -64764.94, 0.00, 0.00, 0.00
183, -15166.35, -31199.93, -187500.02, -28914.30, -54651.29, -50472.02, -56559.68, -64773.36, 0.00, 0.00, 0.00
184, -15150.06, -31185.94, -187500.02, -28899.29, -54648.32, -50444.49, -56545.31, -64765.61, 0.01, 0.69, 0.66
185, -15150.35, -31187.41, -187500.02, -28910.88, -54675.81, -50458.77, -56549.38, -64775.38, 0.00, 0.00, 0.00
186, -15146.75, -31184.64, -187500.02, -28900.13, -54619.55, -50451.48, -56541.66, -64760.02, 0.00, 0.00, 0.00
187, -15142.21, -31177.04, -187500.02, -28899.75, -54631.86, -50455.84, -56544.88, -64763.89, 0.00, 0.00, 0.00
188, -15140.38, -31170.51, -187500.02, -28893.07, -54632.29, -50457.47, -56541.21, -64758.95, 0.00, 0.00, 0.00
189, -15143.84, -31175.12, -187500.02, -28895.44, -54639.75, -50453.07, -56543.30, -64764.22, 0.00, 0.00, 0.00
190, -15151.38, -31180.88, -187500.02, -28902.37, -54640.54, -50451.89, -56539.16, -64762.57, 0.00, 0.00, 0.00
191, -15149.90, -31179.88, -187500.02, -28902.12, -54637.96, -50447.80, -56531.92, -64760.78, 0.00, 0.00, 0.00
192, -15146.12, -31175.81, -187500.02, -28901.74, -54627.77, -50451.37, -56534.62, -64766.32, 0.00, 0.00, 0.00
193, -15141.43, -31168.52, -187500.02, -28898.81, -54635.86, -50443.91, -56525.13, -64749.56, 0.00, 0.00, 0.00
194, -15154.77, -31179.10, -187500.02, -28916.29, -54651.40, -50455.51, -56534.24, -64755.28, 0.01, 0.69, 0.66
195, -15152.74, -31180.10, -187500.02, -28920.18, -54645.79, -50469.59, -56544.05, -64762.25, 0.00, 0.00, 0.00
196, -15157.88, -31184.79, -187500.02, -28921.05, -54651.04, -50460.49, -56544.50, -64770.77, 0.00, 0.00, 0.00
197, -15145.59, -31172.95, -187500.02, -28907.35, -54664.81, -50442.81, -56529.30, -64761.41, 0.00, 0.00, 0.00
198, -15152.38, -31178.71, -187500.02, -28922.20, -54647.71, -50458.70, -56540.10, -64761.96, 0.00, 0.00, 0.00
199, -15162.13, -31186.07, -187500.02, -28930.40, -54641.32, -50467.96, -56550.89, -64768.71, 0.00, 0.00, 0.00
200, -15161.79, -31187.48, -187500.02, -28927.11, -54655.76, -50460.94, -56541.44, -64768.96, 0.00, 0.00, 0.00
201, -15143.73, -31170.11, -187500.02, -28911.56, -54641.32, -50445.92, -56526.04, -64756.18, 0.00, 0.00, 0.00
202, -15148.89, -31173.87, -187500.02, -28913.86, -54640.78, -50445.23, -56526.53, -64755.53, 0.00, 0.00, 0.00
203, -15153.12, -31179.54, -187500.02, -28919.40, -54639.04, -50456.34, -56535.90, -64756.31, 0.00, 0.00, 0.00
204, -15165.66, -31189.00, -187500.02, -28928.01, -54649.43, -50455.64, -56537.86, -64770.14, 0.00, 0.68, 0.67
205, -15167.13, -31188.73, -187500.02, -28930.22, -54650.17, -50467.04, -56548.46, -64783.15, 0.00, 0.00, 0.00
206, -15155.40, -31178.80, -187500.02, -28923.63, -54651.42, -50475.00, -56547.07, -64769.18, 0.00, 0.00, 0.00
207, -15159.15, -31181.71, -187500.02, -28927.65, -54648.38, -50461.57, -56536.23, -64754.79, 0.00, 0.00, 0.00
208, -15160.14, -31181.96, -187500.02, -28931.52, -54652.38, -50457.77, -56537.55, -64757.11, 0.00, 0.00, 0.00
209, -15140.60, -31163.27, -187500.02, -28916.41, -54636.25, -50452.29, -56527.71, -64747.77, 0.00, 0.00, 0.00
210, -15145.25, -31165.46, -187500.02, -28917.21, -54634.46, -50442.32, -56521.32, -64745.51, 0.00, 0.00, 0.00
211, -15149.90, -31171.21, -187500.02, -28922.35, -54636.71, -50447.19, -56525.35, -64749.89, 0.00, 0.00, 0.00
212, -15147.31, -31171.99, -187500.02, -28925.84, -54638.41, -50453.79, -56529.88, -64753.54, 0.00, 0.00, 0.00
213, -15144.13, -31162.00, -187500.02, -28916.47, -54638.50, -50450.81, -56529.93, -64758.70, 0.00, 0.00, 0.00
214, -15140.00, -31152.61, -187500.02, -28902.01, -54644.07, -50443.59, -56523.92, -64754.84, 0.00, 0.68, 0.67
215, -15154.62, -31166.06, -187500.02, -28920.41, -54666.20, -50461.27, -56534.58, -64759.46, 0.00, 0.00, 0.00
216, -15159.62, -31169.64, -187500.02, -28919.71, -54618.30, -50446.39, -56522.78, -64744.60, 0.00, 0.00, 0.00
217, -15151.75, -31163.56, -187500.02, -28911.47, -54631.73, -50443.23, -56520.45, -64744.26, 0.00, 0.00, 0.00
218, -15145.97, -31161.68, -187500.02, -28913.23, -54629.23, -50446.93, -56523.47, -64747.66, 0.00, 0.00, 0.00
219, -15153.16, -31167.36, -187500.02, -28923.29, -54631.28, -50450.32, -56523.25, -64754.95, 0.00, 0.00, 0.00
220, -15158.42, -31168.41, -187500.02, -28922.55, -54654.57, -50456.56, -56533.24, -64756.22, 0.00, 0.00, 0.00
221, -15150.66, -31157.59, -187500.02, -28909.83, -54644.40, -50455.02, -56525.48, -64746.23, 0.00, 0.00, 0.00
222, -15146.30, -31154.46, -187500.02, -28910.55, -54639.04, -50440.71, -56514.11, -64743.86, 0.00, 0.00, 0.00
223, -15142.52, -31150.48, -187500.02, -28911.06, -54629.76, -50442.90, -56510.19, -64739.05, 0.00, 0.00, 0.00
224, -15143.51, -31148.56, -187500.02, -28905.52, -54623.32, -50427.52, -56502.91, -64731.07, 0.00, 0.67, 0.67
225, -15150.01, -31153.75, -187500.02, -28909.21, -54631.02, -50431.30, -56512.07, -64736.53, 0.00, 0.00, 0.00
226, -15152.00, -31156.81, -187500.02, -28913.39, -54630.28, -50442.68, -56516.88, -64738.18, 0.00, 0.00, 0.00
227, -15159.78, -31161.50, -187500.02, -28923.76, -54637.21, -50449.02, -56522.62, -64745.56, 0.00, 0.00, 0.00
228, -15164.32, -31166.62, -187500.02, -28925.93, -54643.46, -50458.55, -56527.09, -64750.16, 0.00, 0.00, 0.00
229, -15164.23, -31165.01, -187500.02, -28925.93, -54644.85, -50458.41, -56529.15, -64754.12, 0.00, 0.00, 0.00
230, -15150.15, -31150.80, -187500.02, -28913.19, -54633.38, -50445.14, -56522.84, -64742.25, 0.00, 0.00, 0.00
231, -15148.36, -31147.58, -187500.02, -28903.73, -54631.86, -50431.93, -56510.26, -64735.50, 0.00, 0.00, 0.00
232, -15156.78, -31151.98, -187500.02, -28912.96, -54628.15, -50440.49, -56515.45, -64738.83, 0.00, 0.00, 0.00
233, -15160.09, -31155.43, -187500.02, -28917.61, -54624.55, -50448.42, -56521.50, -64748.13, 0.00, 0.00, 0.00
234, -15167.65, -31163.49, -187500.02, -28923.49, -54653.28, -50448.24, -56528.03, -64752.87, 0.00, 0.68, 0.68
235, -15166.08, -31161.39, -187500.02, -28926.53, -54655.09, -50452.56, -56525.23, -64747.68, 0.00, 0.00, 0.00
236, -15174.20, -31166.20, -187500.02, -28938.18, -54675.29, -50463.71, -56533.93, -64759.30, 0.00, 0.00, 0.00
237, -15178.09, -31172.35, -187500.02, -28945.37, -54681.33, -50472.63, -56544.79, -64772.83, 0.00, 0.00, 0.00
238, -15162.31, -31155.07, -187500.02, -28922.73, -54629.70, -50452.89, -56523.94, -64744.11, 0.00, 0.00, 0.00
239, -15160.20, -31150.24, -187500.02, -28924.36, -54643.22, -50449.76, -56518.86, -64745.13, 0.00, 0.00, 0.00
240, -15166.93, -31153.55, -187500.02, -28926.51, -54646.28, -50457.03, -56523.80, -64752.22, 0.00, 0.00, 0.00
241, -15157.99, -31147.06, -187500.02, -28918.87, -54638.95, -50468.34, -56523.45, -64741.65, 0.00, 0.00, 0.00
242, -15142.46, -31129.09, -187500.02, -28897.77, -54625.11, -50426.25, -56504.49, -64727.03, 0.00, 0.00, 0.00
243, -15140.29, -31124.69, -187500.02, -28890.99, -54622.39, -50408.48, -56491.26, -64722.07, 0.00, 0.00, 0.00
244, -15149.65, -31130.77, -187500.02, -28904.54, -54626.61, -50421.15, -56496.76, -64725.35, 0.00, 0.68, 0.68
245, -15153.39, -31129.47, -187500.02, -28898.44, -54629.16, -50419.92, -56495.86, -64726.74, 0.00, 0.00, 0.00
246, -15137.25, -31110.92, -187500.02, -28877.45, -54615.84, -50404.79, -56481.36, -64712.34, 0.00, 0.00, 0.00
247, -15127.97, -31099.46, -187500.02, -28873.13, -54613.71, -50412.32, -56484.22, -64714.36, 0.00, 0.00, 0.00
248, -15137.94, -31106.86, -187500.02, -28887.21, -54618.86, -50424.80, -56493.96, -64729.51, 0.00, 0.00, 0.00
249, -15153.19, -31122.32, -187500.02, -28908.72, -54636.02, -50420.30, -56508.40, -64742.29, 0.00, 0.00, 0.00
250, -15165.93, -31135.71, -187500.02, -28915.15, -54668.10, -50434.90, -56524.97, -64753.18, 0.00, 0.00, 0.00
251, -15168.94, -31137.61, -187500.02, -28917.37, -54666.46, -50448.13, -56532.16, -64759.95, 0.00, 0.00, 0.00
252, -15185.51, -31150.60, -187500.02, -28939.56, -54669.30, -50465.32, -56543.30, -64766.05, 0.00, 0.00, 0.00
253, -15184.19, -31146.06, -187500.02, -28940.05, -54669.26, -50462.77, -56539.09, -64763.11, 0.00, 0.00, 0.00
254, -15184.25, -31143.62, -187500.02, -28931.40, -54669.32, -50463.26, -56541.02, -64765.77, 0.00, 0.68, 0.68
255, -15180.21, -31140.43, -187500.02, -28926.89, -54687.14, -50457.63, -56538.31, -64767.33, 0.00, 0.00, 0.00
0, -15176.43, -31132.76, -187500.02, -28925.23, -54660.77, -50452.40, -56533.06, -64761.16, 0.00, 0.00, 0.00
1, -15171.40, -31125.00, -187500.02, -28924.16, -54639.33, -50452.29, -56525.59, -64748.89, 0.00, 0.00, 0.00
2, -15169.01, -31121.72, -187500.02, -28919.60, -54648.29, -50441.96, -56519.96, -64743.82, 0.00, 0.00, 0.00
3, -15172.05, -31121.12, -187500.02, -28918.82, -54652.79, -50439.04, -56520.23, -64746.61, 0.00, 0.00, 0.00
4, -15166.51, -31111.93, -187500.02, -28915.51, -54647.91, -50434.21, -56513.28, -64739.68, 0.00, 0.00, 0.00
5, -15162.06, -31106.29, -187500.02, -28917.03, -54636.27, -50435.01, -56507.55, -64731.43, 0.00, 0.00, 0.00
6, -15168.32, -31113.34, -187500.02, -28922.66, -54639.35, -50430.92, -56514.59, -64743.93, 0.00, 0.00, 0.00
7, -15167.76, -31110.92, -187500.02, -28919.83, -54646.68, -50433.16, -56516.61, -64743.59, 0.00, 0.00, 0.00
8, -15176.99, -31116.62, -187500.02, -28916.61, -54667.05, -50431.10, -56513.93, -64741.22, 0.00, 0.00, 0.00
9, -15178.67, -31116.33, -187500.02, -28923.89, -54660.61, -50429.98, -56511.51, -64739.19, -0.00, 0.67, 0.68
10, -15173.75, -31111.41, -187500.02, -28921.30, -54654.11, -50428.80, -56513.07, -64739.46, 0.00, 0.00, 0.00
11, -15175.13, -31115.21, -187500.02, -28921.68, -54654.11, -50434.16, -56517.93, -64742.54, 0.00, 0.00, 0.00
12, -15172.18, -31109.78, -187500.02, -28918.62, -54652.38, -50434.05, -56516.81, -64742.77, 0.00, 0.00, 0.00
13, -15169.55, -31105.20, -187500.02, -28916.67, -54647.73, -50423.43, -56503.24, -64735.41, 0.00, 0.00, 0.00
14, -15172.05, -31108.60, -187500.02, -28920.05, -54647.73, -50425.27, -56504.18, -64732.71, 0.00, 0.00, 0.00
15, -15170.26, -31102.43, -187500.02, -28916.32, -54647.84, -50426.74, -56505.79, -64730.79, 0.00, 0.00, 0.00
16, -15172.65, -31099.48, -187500.02, -28916.36, -54649.32, -50427.95, -56507.44, -64733.22, 0.00, 0.00, 0.00
17, -15177.19, -31101.00, -187500.02, -28920.12, -54645.97, -50420.21, -56498.05, -64726.13, 0.00, 0.00, 0.00
18, -15180.99, -31103.12, -187500.02, -28925.12, -54650.55, -50427.48, -56499.75, -64729.51, 0.00, 0.00, 0.00
19, -15179.05, -31102.03, -187500.02, -28927.58, -54660.09, -50448.15, -56511.33, -64743.48, -0.00, 0.67, 0.68
20, -15174.96, -31092.86, -187500.02, -28914.28, -54652.50, -50419.75, -56501.09, -64734.38, 0.00, 0.00, 0.00
21, -15169.37, -31086.36, -187500.02, -28911.13, -54645.16, -50405.30, -56494.79, -64726.83, 0.00, 0.00, 0.00
22, -15166.73, -31082.36, -187500.02, -28909.88, -54638.77, -50408.73, -56490.34, -64718.13, 0.00, 0.00, 0.00
23, -15165.21, -31076.39, -187500.02, -28907.38, -54637.72, -50410.25, -56493.27, -64723.96, 0.00, 0.00, 0.00
24, -15165.10, -31073.86, -187500.02, -28908.14, -54636.71, -50412.95, -56497.12, -64732.30, 0.00, 0.00, 0.00
25, -15172.39, -31081.44, -187500.02, -28917.21, -54676.07, -50420.97, -56502.73, -64734.72, 0.00, 0.00, 0.00
26, -15166.87, -31072.92, -187500.02, -28907.55, -54663.76, -50405.02, -56486.28, -64718.60, 0.00, 0.00, 0.00
27, -15171.83, -31075.34, -187500.02, -28914.82, -54633.05, -50415.18, -56497.14, -64724.01, 0.00, 0.00, 0.00
28, -15162.77, -31063.56, -187500.02, -28903.62, -54649.72, -50414.40, -56499.11, -64730.38, 0.00, 0.00, 0.00
29, -15165.30, -31065.93, -187500.02, -28905.90, -54645.39, -50415.97, -56493.90, -64719.52, 0.00, 0.67, 0.68
30, -15162.82, -31059.18, -187500.02, -28901.30, -54638.55, -50405.26, -56484.42, -64712.81, 0.00, 0.00, 0.00
31, -15162.91, -31054.64, -187500.02, -28901.01, -54639.11, -50401.71, -56481.58, -64714.82, 0.00, 0.00, 0.00
32, -15167.78, -31060.41, -187500.02, -28906.88, -54644.49, -50414.89, -56495.66, -64723.41, 0.00, 0.00, 0.00
33, -15168.05, -31056.79, -187500.02, -28909.46, -54640.83, -50422.61, -56495.20, -64717.71, 0.00, 0.00, 0.00
34, -15177.93, -31063.40, -187500.02, -28920.81, -54649.39, -50426.05, -56501.34, -64726.34, 0.00, 0.00, 0.00
35, -15171.20, -31050.17, -187500.02, -28915.49, -54652.96, -50419.99, -56503.11, -64730.40, 0.00, 0.00, 0.00
36, -15161.95, -31037.10, -187500.02, -28924.65, -54670.22, -50433.96, -56518.69, -64745.29, 0.00, 0.00, 0.00
37, -15151.46, -31032.13, -187500.02, -28914.64, -54652.09, -50418.52, -56498.08, -64726.87, 0.00, 0.00, 0.00
38, -15170.71, -31047.73, -187500.02, -28909.86, -54629.14, -50402.42, -56480.98, -64710.22, 0.00, 0.00, 0.00
39, -15178.53, -31055.49, -187500.02, -28909.88, -54619.68, -50411.43, -56480.18, -64710.42, 0.00, 0.67, 0.69
40, -15182.22, -31060.81, -187500.02, -28910.10, -54640.60, -50410.65, -56482.23, -64707.43, 0.00, 0.00, 0.00
41, -15194.33, -31076.54, -187500.02, -28913.14, -54649.23, -50399.07, -56482.61, -64712.19, 0.00, 0.00, 0.00
42, -15203.92, -31088.97, -187500.02, -28928.68, -54654.46, -50418.89, -56497.63, -64726.89, 0.00, 0.00, 0.00
43, -15205.56, -31093.38, -187500.02, -28934.20, -54655.54, -50421.49, -56500.60, -64728.41, 0.00, 0.00, 0.00
44, -15219.91, -31108.17, -187500.02, -28937.97, -54686.74, -50429.33, -56508.47, -64741.67, 0.00, 0.00, 0.00
45, -15221.07, -31106.97, -187500.02, -28943.07, -54642.88, -50437.47, -56510.33, -64733.80, 0.00, 0.00, 0.00
46, -15233.36, -31120.51, -187500.02, -28958.83, -54657.52, -50452.96, -56521.79, -64745.29, 0.00, 0.00, 0.00
47, -15222.72, -31105.69, -187500.02, -28946.11, -54650.95, -50448.33, -56510.73, -64735.43, 0.00, 0.00, 0.00
48, -15222.68, -31103.44, -187500.02, -28954.25, -54659.67, -50450.59, -56516.81, -64739.48, 0.00, 0.00, 0.00
49, -15213.85, -31093.55, -187500.02, -28938.22, -54660.00, -50436.55, -56509.97, -64738.16, 0.00, 0.67, 0.69
50, -15212.33, -31086.85, -187500.02, -28946.76, -54666.91, -50448.82, -56516.92, -64744.95, 0.00, 0.00, 0.00
51, -15206.81, -31081.91, -187500.02, -28949.11, -54665.26, -50444.58, -56511.94, -64742.03, 0.00, 0.00, 0.00
52, -15196.39, -31073.37, -187500.02, -28943.36, -54662.24, -50442.79, -56510.15, -64738.18, 0.00, 0.00, 0.00
53, -15191.54, -31063.83, -187500.02, -28938.38, -54660.90, -50442.43, -56510.26, -64737.04, 0.00, 0.00, 0.00
54, -15193.87, -31064.25, -187500.02, -28938.00, -54645.48, -50444.40, -56508.89, -64736.21, 0.00, 0.00, 0.00
55, -15213.09, -31079.90, -187500.02, -28956.84, -54662.89, -50449.52, -56519.98, -64747.79, 0.00, 0.00, 0.00
56, -15202.87, -31064.63, -187500.02, -28945.17, -54671.36, -50443.91, -56512.94, -64734.43, 0.00, 0.00, 0.00
57, -15204.42, -31065.04, -187500.02, -28942.07, -54665.91, -50448.09, -56514.24, -64736.24, 0.00, 0.00, 0.00
58, -15210.05, -31067.74, -187500.02, -28950.02, -54669.06, -50453.83, -56520.30, -64742.09, 0.00, 0.00, 0.00
59, -15208.95, -31066.11, -187500.02, -28956.97, -54663.58, -50454.30, -56521.88, -64738.92, 0.00, 0.67, 0.69
60, -15207.05, -31063.43, -187500.02, -28957.02, -54661.91, -50450.95, -56516.34, -64736.93, 0.00, 0.00, 0.00
61, -15210.18, -31064.30, -187500.02, -28958.74, -54668.74, -50456.56, -56522.73, -64745.63, 0.00, 0.00, 0.00
62, -15220.11, -31066.46, -187500.02, -28961.65, -54676.81, -50466.10, -56533.82, -64756.13, 0.00, 0.00, 0.00
63, -15233.21, -31080.88, -187500.02, -28974.14, -54684.48, -50473.68, -56541.39, -64761.43, 0.00, 0.00, 0.00
64, -15228.78, -31074.58, -187500.02, -28972.78, -54679.79, -50476.54, -56543.45, -64759.53, 0.00, 0.00, 0.00
65, -15214.21, -31056.05, -187500.02, -28961.09, -54670.89, -50472.27, -56536.95, -64749.67, 0.00, 0.00, 0.00
66, -15221.87, -31060.41, -187500.02, -28961.89, -54678.54, -50464.80, -56538.63, -64756.71, 0.00, 0.00, 0.00
67, -15218.34, -31050.97, -187500.02, -28961.56, -54672.52, -50453.52, -56521.79, -64745.22, 0.00, 0.00, 0.00
68, -15209.07, -31042.10, -187500.02, -28952.82, -54653.43, -50440.26, -56508.14, -64729.49, 0.00, 0.00, 0.00
69, -15208.39, -31040.02, -187500.02, -28950.02, -54658.53, -50444.44, -56512.83, -64733.58, 0.00, 0.67, 0.69
70, -15201.40, -31031.98, -187500.02, -28938.18, -54651.98, -50436.02, -56499.31, -64724.30, 0.00, 0.00, 0.00
71, -15197.20, -31029.90, -187500.02, -28937.66, -54643.44, -50433.63, -56497.92, -64727.25, 0.00, 0.00, 0.00
72, -15192.39, -31023.79, -187500.02, -28940.08, -54649.03, -50436.24, -56497.59, -64720.73, 0.00, 0.00, 0.00
73, -15199.88, -31024.89, -187500.02, -28944.44, -54670.35, -50445.02, -56505.75, -64724.70, 0.00, 0.00, 0.00
74, -15205.47, -31029.23, -187500.02, -28944.01, -54671.00, -50446.21, -56508.72, -64731.92, 0.00, 0.00, 0.00
75, -15207.48, -31030.01, -187500.02, -28947.52, -54668.32, -50445.09, -56505.14, -64729.15, 0.00, 0.00, 0.00
76, -15207.77, -31030.19, -187500.02, -28946.20, -54664.54, -50443.77, -56504.27, -64727.30, 0.00, 0.00, 0.00
77, -15213.92, -31041.70, -187500.02, -28949.73, -54670.13, -50453.94, -56514.95, -64736.13, 0.00, 0.00, 0.00
78, -15207.37, -31033.83, -187500.02, -28942.92, -54665.08, -50455.89, -56514.08, -64730.74, 0.00, 0.00, 0.00
79, -15211.84, -31034.14, -187500.02, -28940.41, -54660.72, -50442.12, -56504.38, -64721.62, 0.00, 0.67, 0.69
80, -15217.51, -31040.51, -187500.02, -28947.88, -54661.82, -50444.02, -56504.40, -64720.59, 0.00, 0.00, 0.00
81, -15209.87, -31034.88, -187500.02, -28942.20, -54656.88, -50438.09, -56495.53, -64714.04, 0.00, 0.00, 0.00
82, -15211.26, -31031.37, -187500.02, -28936.21, -54655.40, -50438.99, -56491.82, -64711.63, 0.00, 0.00, 0.00
83, -15217.07, -31037.41, -187500.02, -28942.89, -54667.45, -50449.25, -56502.39, -64724.26, 0.00, 0.00, 0.00
84, -15228.24, -31051.73, -187500.02, -28958.36, -54673.46, -50449.32, -56510.24, -64731.01, 0.00, 0.00, 0.00
85, -15221.29, -31043.80, -187500.02, -28950.78, -54650.71, -50428.93, -56495.35, -64717.66, 0.00, 0.00, 0.00
86, -15208.73, -31027.55, -187500.02, -28934.11, -54642.32, -50420.93, -56482.77, -64713.13, 0.00, 0.00, 0.00
87, -15202.25, -31022.79, -187500.02, -28928.32, -54662.24, -50418.54, -56481.52, -64708.16, 0.00, 0.00, 0.00
88, -15206.94, -31030.90, -187500.02, -28937.15, -54658.06, -50422.23, -56486.05, -64707.76, 0.00, 0.00, 0.00
89, -15224.76, -31041.01, -187500.02, -28948.91, -54662.95, -50430.38, -56490.05, -64714.04, 0.00, 0.00, 0.00
90, -15233.92, -31052.88, -187500.02, -28956.44, -54671.83, -50440.29, -56501.83, -64725.64, 0.00, 0.68, 0.69
91, -15229.67, -31048.67, -187500.02, -28949.80, -54668.70, -50438.48, -56501.05, -64724.64, 0.00, 0.00, 0.00
92, -15224.17, -31040.34, -187500.02, -28946.04, -54661.01, -50430.52, -56488.91, -64711.74, 0.00, 0.00, 0.00
93, -15221.40, -31040.00, -187500.02, -28945.24, -54655.51, -50428.53, -56486.79, -64707.16, 0.00, 0.00, 0.00
94, -15224.38, -31043.53, -187500.02, -28945.35, -54656.70, -50437.74, -56495.80, -64710.11, 0.00, 0.00, 0.00
95, -15223.01, -31042.71, -187500.02, -28936.61, -54653.05, -50428.37, -56486.48, -64706.44, 0.00, 0.00, 0.00
96, -15225.36, -31047.85, -187500.02, -28943.81, -54655.47, -50435.41, -56489.83, -64709.86, 0.00, 0.00, 0.00
97, -15221.02, -31040.80, -187500.02, -28942.69, -54650.80, -50429.94, -56483.59, -64702.89, 0.00, 0.00, 0.00
98, -15225.49, -31043.91, -187500.02, -28940.97, -54656.00, -50424.17, -56485.85, -64707.54, 0.00, 0.00, 0.00
99, -15219.06, -31038.35, -187500.02, -28927.04, -54646.57, -50411.03, -56478.81, -64702.40, 0.00, 0.00, 0.00
100, -15224.02, -31038.30, -187500.02, -28932.63, -54654.75, -50421.71, -56486.63, -64711.23, 0.00, 0.68, 0.68
101, -15227.35, -31042.21, -187500.02, -28942.94, -54662.46, -50429.36, -56494.95, -64719.59, 0.00, 0.00, 0.00
102, -15228.35, -31045.48, -187500.02, -28943.81, -54656.43, -50428.71, -56491.44, -64715.14, 0.00, 0.00, 0.00
103, -15222.83, -31038.88, -187500.02, -28933.24, -54644.45, -50420.88, -56484.58, -64710.00, 0.00, 0.00, 0.00
104, -15232.87, -31046.48, -187500.02, -28940.86, -54665.21, -50426.94, -56490.37, -64708.99, 0.00, 0.00, 0.00
105, -15232.74, -31049.68, -187500.02, -28946.76, -54659.89, -50423.05, -56486.12, -64705.32, 0.00, 0.00, 0.00
106, -15228.62, -31040.13, -187500.02, -28935.81, -54649.43, -50411.65, -56475.84, -64699.71, 0.00, 0.00, 0.00
107, -15226.16, -31036.33, -187500.02, -28928.32, -54650.80, -50410.63, -56476.33, -64700.70, 0.00, 0.00, 0.00
108, -15234.70, -31045.39, -187500.02, -28943.99, -54662.80, -50426.36, -56490.88, -64713.33, 0.00, 0.00, 0.00
109, -15239.51, -31052.41, -187500.02, -28946.09, -54661.55, -50421.69, -56487.26, -64710.64, 0.00, 0.00, 0.00
110, -15252.32, -31061.64, -187500.02, -28950.45, -54663.40, -50423.63, -56486.03, -64709.24, 0.01, 0.68, 0.68
111, -15249.86, -31056.34, -187500.02, -28942.60, -54658.64, -50417.62, -56481.45, -64704.16, 0.00, 0.00, 0.00
112, -15230.77, -31034.44, -187500.02, -28923.92, -54643.29, -50408.12, -56468.57, -64690.95, 0.00, 0.00, 0.00
113, -15239.60, -31045.72, -187500.02, -28935.58, -54652.18, -50411.77, -56475.19, -64699.04, 0.00, 0.00, 0.00
114, -15250.53, -31059.36, -187500.02, -28947.16, -54660.90, -50413.13, -56479.75, -64705.50, 0.00, 0.00, 0.00
115, -15247.13, -31053.81, -187500.02, -28945.75, -54661.70, -50431.48, -56484.80, -64708.43, 0.00, 0.00, 0.00
116, -15237.23, -31046.50, -187500.02, -28937.46, -54659.91, -50403.94, -56475.30, -64705.30, 0.00, 0.00, 0.00
117, -15240.69, -31052.36, -187500.02, -28938.29, -54656.18, -50398.22, -56471.48, -64699.74, 0.00, 0.00, 0.00
118, -15253.52, -31063.29, -187500.02, -28950.07, -54660.05, -50413.51, -56482.27, -64703.78, 0.00, 0.00, 0.00
119, -15250.95, -31062.69, -187500.02, -28947.81, -54653.90, -50418.43, -56480.09, -64705.17, 0.00, 0.00, 0.00
120, -15252.81, -31055.71, -187500.02, -28942.09, -54649.77, -50413.26, -56477.80, -64706.60, 0.01, 0.68, 0.69
121, -15258.93, -31056.65, -187500.02, -28941.98, -54672.99, -50415.27, -56483.88, -64706.15, 0.00, 0.00, 0.00
122, -15263.74, -31065.73, -187500.02, -28950.27, -54669.95, -50418.98, -56484.00, -64706.49, 0.00, 0.00, 0.00
123, -15270.17, -31073.86, -187500.02, -28956.62, -54672.30, -50425.58, -56488.51, -64712.54, 0.00, 0.00, 0.00
124, -15271.81, -31071.20, -187500.02, -28956.42, -54677.82, -50427.93, -56491.39, -64719.03, 0.00, 0.00, 0.00
125, -15273.95, -31071.81, -187500.02, -28959.41, -54678.40, -50430.05, -56494.08, -64721.73, 0.00, 0.00, 0.00
126, -15277.33, -31077.24, -187500.02, -28962.14, -54672.68, -50426.85, -56487.46, -64711.16, 0.00, 0.00, 0.00
127, -15275.63, -31077.84, -187500.02, -28956.79, -54666.75, -50425.87, -56481.45, -64702.64, 0.00, 0.00, 0.00
128, -15261.46, -31066.40, -187500.02, -28944.93, -54653.50, -50421.27, -56472.20, -64689.68, 0.00, 0.00, 0.00
129, -15278.38, -31079.94, -187500.02, -28954.27, -54664.23, -50417.26, -56480.11, -64701.79, 0.00, 0.00, 0.00
130, -15293.67, -31091.25, -187500.02, -28962.52, -54672.50, -50423.25, -56487.39, -64711.32, 0.00, 0.68, 0.68
131, -15287.25, -31082.94, -187500.02, -28953.24, -54665.44, -50417.75, -56480.22, -64706.44, 0.00, 0.00, 0.00
132, -15287.07, -31077.69, -187500.02, -28947.79, -54660.38, -50417.69, -56477.80, -64703.31, 0.00, 0.00, 0.00
133, -15288.64, -31081.57, -187500.02, -28953.02, -54661.12, -50418.76, -56477.56, -64700.41, 0.00, 0.00, 0.00
134, -15286.54, -31082.00, -187500.02, -28952.75, -54652.63, -50411.99, -56471.28, -64691.69, 0.00, 0.00, 0.00
135, -15289.02, -31086.58, -187500.02, -28951.30, -54642.91, -50410.02, -56469.80, -64690.11, 0.00, 0.00, 0.00
136, -15281.64, -31073.51, -187500.02, -28936.86, -54636.65, -50399.96, -56460.88, -64687.55, 0.00, 0.00, 0.00
137, -15284.44, -31076.12, -187500.02, -28938.15, -54655.96, -50403.74, -56464.71, -64685.30, 0.00, 0.00, 0.00
138, -15288.57, -31080.23, -187500.02, -28942.65, -54655.91, -50403.47, -56463.95, -64682.21, 0.00, 0.00, 0.00
139, -15285.44, -31077.02, -187500.02, -28935.83, -54645.48, -50395.05, -56457.80, -64674.01, 0.00, 0.00, 0.00
140, -15294.07, -31084.75, -187500.02, -28939.79, -54650.04, -50402.55, -56467.12, -64682.57, 0.00, 0.67, 0.69
141, -15297.15, -31087.21, -187500.02, -28934.62, -54648.20, -50397.46, -56460.13, -64681.95, 0.00, 0.00, 0.00
142, -15304.55, -31093.49, -187500.02, -28942.69, -54650.17, -50399.96, -56460.71, -64683.60, 0.00, 0.00, 0.00
143, -15305.00, -31092.15, -187500.02, -28945.64, -54647.35, -50398.67, -56459.61, -64682.91, 0.00, 0.00, 0.00
144, -15303.37, -31087.16, -187500.02, -28943.47, -54650.26, -50399.89, -56461.93, -64686.66, 0.00, 0.00, 0.00
145, -15302.43, -31086.36, -187500.02, -28941.69, -54655.31, -50401.42, -56461.64, -64690.13, 0.00, 0.00, 0.00
146, -15299.32, -31085.51, -187500.02, -28942.42, -54651.04, -50406.00, -56461.55, -64683.42, 0.00, 0.00, 0.00
147, -15311.26, -31098.29, -187500.02, -28955.95, -54652.90, -50423.90, -56471.03, -64687.45, 0.00, 0.00, 0.00
148, -15310.79, -31091.43, -187500.02, -28944.75, -54647.53, -50397.46, -56452.46, -64678.70, 0.00, 0.00, 0.00
149, -15307.46, -31084.73, -187500.02, -28934.82, -54641.68, -50382.28, -56443.05, -64668.64, 0.00, 0.00, 0.00
150, -15307.52, -31090.31, -187500.02, -28936.61, -54642.30, -50391.11, -56450.65, -64672.13, 0.00, 0.67, 0.68
151, -15312.38, -31095.77, -187500.02, -28939.74, -54646.41, -50397.17, -56451.27, -64677.39, 0.00, 0.00, 0.00
152, -15300.24, -31078.31, -187500.02, -28923.98, -54639.08, -50375.15, -56440.30, -64672.76, 0.00, 0.00, 0.00
153, -15297.13, -31075.27, -187500.02, -28920.32, -54634.19, -50378.37, -56442.76, -64675.87, 0.00, 0.00, 0.00
154, -15297.11, -31077.95, -187500.02, -28922.80, -54633.90, -50379.78, -56445.89, -64679.35, 0.00, 0.00, 0.00
155, -15313.22, -31090.83, -187500.02, -28941.02, -54665.82, -50393.48, -56460.15, -64685.75, 0.00, 0.00, 0.00
156, -15341.48, -31119.15, -187500.02, -28969.45, -54688.44, -50426.29, -56490.34, -64712.39, 0.00, 0.00, 0.00
157, -15345.81, -31128.20, -187500.02, -28973.92, -54687.27, -50433.18, -56493.79, -64716.39, 0.00, 0.00, 0.00
158, -15344.41, -31129.63, -187500.02, -28976.46, -54681.75, -50437.78, -56496.65, -64714.45, 0.00, 0.00, 0.00
159, -15360.27, -31148.47, -187500.02, -28995.71, -54689.87, -50455.22, -56513.34, -64724.52, 0.00, 0.00, 0.00
160, -15361.30, -31149.23, -187500.02, -28994.86, -54688.93, -50450.93, -56506.21, -64721.69, 0.00, 0.67, 0.68
161, -15355.58, -31134.59, -187500.02, -28978.95, -54682.96, -50441.09, -56491.73, -64710.45, 0.00, 0.00, 0.00
162, -15352.99, -31132.71, -187500.02, -28969.65, -54672.54, -50430.50, -56485.67, -64704.27, 0.00, 0.00, 0.00
163, -15367.58, -31147.74, -187500.02, -28978.61, -54680.61, -50421.04, -56486.16, -64709.13, 0.00, 0.00, 0.00
164, -15369.66, -31147.91, -187500.02, -28975.04, -54675.70, -50419.59, -56480.71, -64699.87, 0.00, 0.00, 0.00
165, -15366.35, -31142.55, -187500.02, -28965.51, -54674.73, -50416.19, -56477.29, -64699.74, 0.00, 0.00, 0.00
166, -15361.17, -31136.20, -187500.02, -28959.01, -54674.22, -50416.05, -56477.54, -64699.71, 0.00, 0.00, 0.00
167, -15359.87, -31133.88, -187500.02, -28957.06, -54667.92, -50410.47, -56470.38, -64691.94, 0.00, 0.00, 0.00
168, -15377.51, -31153.39, -187500.02, -28970.59, -54675.76, -50418.07, -56474.83, -64697.32, 0.00, 0.00, 0.00
169, -15386.40, -31163.05, -187500.02, -28974.43, -54683.00, -50423.66, -56479.86, -64703.13, 0.00, 0.00, 0.00
170, -15379.52, -31158.58, -187500.02, -28963.46, -54671.49, -50412.61, -56467.59, -64691.85, 0.00, 0.00, 0.00
171, -15369.19, -31148.36, -187500.02, -28955.28, -54649.25, -50399.38, -56458.14, -64684.38, 0.00, 0.67, 0.69
172, -15378.65, -31158.35, -187500.02, -28967.46, -54657.97, -50407.21, -56461.84, -64685.43, 0.00, 0.00, 0.00
173, -15391.17, -31169.82, -187500.02, -28976.17, -54687.36, -50420.15, -56472.17, -64690.44, 0.00, 0.00, 0.00
174, -15387.72, -31163.79, -187500.02, -28968.66, -54681.44, -50421.06, -56474.56, -64691.80, 0.00, 0.00, 0.00
175, -15388.19, -31163.90, -187500.02, -28969.16, -54679.50, -50421.33, -56476.08, -64692.74, 0.00, 0.00, 0.00
176, -15396.93, -31171.45, -187500.02, -28971.14, -54675.98, -50410.18, -56462.88, -64686.75, 0.00, 0.00, 0.00
177, -15400.73, -31176.70, -187500.02, -28969.92, -54677.77, -50408.08, -56459.21, -64688.00, 0.00, 0.00, 0.00
178, -15401.09, -31176.68, -187500.02, -28966.79, -54679.38, -50408.23, -56461.31, -64691.02, 0.00, 0.00, 0.00
179, -15403.06, -31173.80, -187500.02, -28964.33, -54677.35, -50405.55, -56458.45, -64689.05, 0.00, 0.00, 0.00
180, -15406.90, -31178.69, -187500.02, -28971.95, -54675.43, -50406.69, -56457.87, -64684.45, 0.00, 0.00, 0.00
181, -15403.03, -31173.04, -187500.02, -28973.09, -54675.27, -50409.13, -56461.38, -64686.66, 0.00, 0.66, 0.69
182, -15399.14, -31168.97, -187500.02, -28971.71, -54673.82, -50417.15, -56463.32, -64686.15, 0.00, 0.00, 0.00
183, -15405.09, -31175.41, -187500.02, -28971.08, -54675.92, -50407.96, -56459.21, -64685.66, 0.00, 0.00, 0.00
184, -15414.54, -31184.35, -187500.02, -28975.59, -54676.79, -50402.60, -56460.57, -64687.42, 0.00, 0.00, 0.00
185, -15416.36, -31183.54, -187500.02, -28969.18, -54666.91, -50398.11, -56453.11, -64682.06, 0.00, 0.00, 0.00
186, -15412.87, -31179.88, -187500.02, -28956.86, -54659.54, -50392.90, -56445.11, -64671.51, 0.00, 0.00, 0.00
187, -15421.29, -31190.34, -187500.02, -28961.58, -54669.66, -50404.16, -56455.97, -64680.29, 0.00, 0.00, 0.00
188, -15426.73, -31197.20, -187500.02, -28967.32, -54673.64, -50400.88, -56455.14, -64685.70, 0.00, 0.00, 0.00
189, -15434.88, -31202.86, -187500.02, -28972.91, -54670.27, -50402.94, -56454.89, -64681.95, 0.00, 0.00, 0.00
190, -15441.68, -31208.85, -187500.02, -28973.02, -54665.59, -50406.11, -56457.84, -64682.08, 0.00, 0.00, 0.00
191, -15436.38, -31203.86, -187500.02, -28966.54, -54654.84, -50401.35, -56454.58, -64680.94, 0.01, 0.66, 0.69
192, -15444.09, -31213.21, -187500.02, -28977.22, -54676.70, -50404.88, -56456.82, -64679.40, 0.00, 0.00, 0.00
193, -15442.19, -31215.51, -187500.02, -28981.85, -54679.45, -50402.02, -56454.11, -64678.73, 0.00, 0.00, 0.00
194, -15440.58, -31214.21, -187500.02, -28980.24, -54679.41, -50404.81, -56460.66, -64689.07, 0.00, 0.00, 0.00
195, -15437.39, -31206.88, -187500.02, -28968.57, -54673.10, -50398.82, -56451.41, -64682.79, 0.00, 0.00, 0.00
196, -15444.29, -31214.25, -187500.02, -28972.64, -54670.38, -50404.72, -56455.23, -64679.51, 0.00, 0.00, 0.00
197, -15450.73, -31223.11, -187500.02, -28978.05, -54666.91, -50403.56, -56450.36, -64672.87, 0.00, 0.00, 0.00
198, -15456.05, -31230.28, -187500.02, -28979.95, -54667.09, -50404.23, -56449.62, -64672.60, 0.00, 0.00, 0.00
199, -15450.53, -31221.63, -187500.02, -28970.03, -54668.30, -50402.76, -56453.20, -64677.56, 0.00, 0.00, 0.00
200, -15458.67, -31230.44, -187500.02, -28979.42, -54679.54, -50418.49, -56473.18, -64693.08, 0.00, 0.00, 0.00
201, -15465.60, -31237.99, -187500.02, -28985.41, -54681.84, -50420.68, -56474.27, -64696.94, 0.00, 0.66, 0.69
202, -15466.83, -31239.65, -187500.02, -28982.54, -54678.27, -50417.55, -56465.55, -64689.93, 0.00, 0.00, 0.00
203, -15459.02, -31232.43, -187500.02, -28969.07, -54668.23, -50404.10, -56451.18, -64673.90, 0.00, 0.00, 0.00
204, -15455.05, -31227.42, -187500.02, -28967.79, -54665.23, -50405.21, -56450.76, -64672.11, 0.00, 0.00, 0.00
205, -15471.14, -31243.85, -187500.02, -28984.94, -54673.97, -50419.77, -56458.43, -64682.08, 0.00, 0.00, 0.00
206, -15472.15, -31246.93, -187500.02, -28983.77, -54669.95, -50407.61, -56455.07, -64679.69, 0.00, 0.00, 0.00
207, -15470.89, -31246.49, -187500.02, -28975.93, -54669.04, -50403.65, -56454.52, -64680.38, 0.00, 0.00, 0.00
208, -15464.17, -31239.94, -187500.02, -28967.90, -54665.14, -50404.37, -56454.45, -64678.68, 0.00, 0.00, 0.00
209, -15472.46, -31248.36, -187500.02, -28977.25, -54664.00, -50410.80, -56461.58, -64687.00, 0.00, 0.00, 0.00
210, -15467.61, -31243.96, -187500.02, -28972.24, -54655.85, -50406.78, -56455.27, -64680.29, 0.00, 0.00, 0.00
211, -15470.33, -31242.57, -187500.02, -28966.18, -54682.80, -50406.69, -56455.05, -64677.92, 0.01, 0.65, 0.70
212, -15478.74, -31248.23, -187500.02, -28968.75, -54681.24, -50410.65, -56458.61, -64683.29, 0.00, 0.00, 0.00
213, -15495.88, -31266.83, -187500.02, -28988.94, -54690.40, -50425.69, -56471.88, -64695.98, 0.00, 0.00, 0.00
214, -15497.56, -31267.72, -187500.02, -28988.63, -54686.20, -50421.62, -56469.16, -64693.19, 0.00, 0.00, 0.00
215, -15493.60, -31268.08, -187500.02, -28977.00, -54679.07, -50413.53, -56461.49, -64685.41, 0.00, 0.00, 0.00
216, -15487.17, -31260.39, -187500.02, -28965.40, -54677.77, -50408.97, -56459.99, -64686.15, 0.00, 0.00, 0.00
217, -15502.21, -31274.67, -187500.02, -28981.29, -54688.57, -50424.50, -56472.48, -64695.76, 0.00, 0.00, 0.00
218, -15499.57, -31270.27, -187500.02, -28977.40, -54678.00, -50417.91, -56462.85, -64684.07, 0.00, 0.00, 0.00
219, -15498.74, -31270.96, -187500.02, -28972.42, -54680.84, -50418.96, -56465.04, -64686.21, 0.00, 0.00, 0.00
220, -15496.75, -31266.09, -187500.02, -28964.33, -54679.32, -50414.56, -56462.34, -64685.99, 0.00, 0.00, 0.00
221, -15509.56, -31281.38, -187500.02, -28976.51, -54688.32, -50423.95, -56470.83, -64693.70, 0.01, 0.66, 0.70
222, -15515.98, -31292.75, -187500.02, -28989.41, -54695.07, -50430.61, -56477.87, -64701.17, 0.00, 0.00, 0.00
223, -15516.33, -31290.43, -187500.02, -28983.66, -54694.18, -50426.76, -56476.40, -64702.13, 0.00, 0.00, 0.00
224, -15514.84, -31282.07, -187500.02, -28975.88, -54689.11, -50420.91, -56469.31, -64693.90, 0.00, 0.00, 0.00
225, -15520.34, -31288.57, -187500.02, -28980.20, -54690.29, -50426.65, -56472.20, -64693.77, 0.00, 0.00, 0.00
226, -15536.00, -31310.28, -187500.02, -29007.13, -54704.91, -50452.98, -56492.94, -64711.14, 0.00, 0.00, 0.00
227, -15539.13, -31312.78, -187500.02, -29022.55, -54720.09, -50460.29, -56510.30, -64728.44, 0.00, 0.00, 0.00
228, -15530.82, -31297.00, -187500.02, -29005.23, -54706.16, -50443.59, -56491.55, -64717.86, 0.00, 0.00, 0.00
229, -15548.34, -31311.66, -187500.02, -28992.13, -54704.93, -50434.12, -56479.37, -64710.91, 0.00, 0.00, 0.00
230, -15549.88, -31317.70, -187500.02, -28984.38, -54704.98, -50422.14, -56464.13, -64688.05, 0.00, 0.00, 0.00
231, -15546.35, -31308.89, -187500.02, -28983.15, -54699.79, -50423.68, -56467.23, -64691.80, 0.01, 0.67, 0.70
232, -15541.41, -31299.64, -187500.02, -28968.13, -54694.34, -50414.09, -56460.19, -64685.90, 0.00, 0.00, 0.00
233, -15539.54, -31295.32, -187500.02, -28962.88, -54692.62, -50409.13, -56454.67, -64680.22, 0.00, 0.00, 0.00
234, -15550.33, -31304.53, -187500.02, -28969.96, -54694.58, -50411.81, -56457.82, -64683.18, 0.00, 0.00, 0.00
235, -15558.62, -31311.46, -187500.02, -28969.56, -54696.95, -50412.08, -56459.10, -64684.25, 0.00, 0.00, 0.00
236, -15558.87, -31310.52, -187500.02, -28958.47, -54693.42, -50404.48, -56453.00, -64679.71, 0.00, 0.00, 0.00
237, -15555.12, -31304.06, -187500.02, -28956.71, -54692.48, -50403.32, -56454.43, -64680.34, 0.00, 0.00, 0.00
238, -15564.01, -31310.10, -187500.02, -28965.67, -54699.16, -50410.16, -56462.72, -64688.00, 0.00, 0.00, 0.00
239, -15568.62, -31314.59, -187500.02, -28965.63, -54697.55, -50408.90, -56461.13, -64685.45, 0.00, 0.00, 0.00
240, -15554.96, -31299.08, -187500.02, -28951.23, -54691.48, -50399.63, -56451.81, -64676.60, 0.00, 0.00, 0.00
241, -15552.81, -31298.34, -187500.02, -28946.51, -54691.90, -50395.34, -56448.68, -64675.95, 0.01, 0.67, 0.69
242, -15564.55, -31313.14, -187500.02, -28962.58, -54696.08, -50410.54, -56464.46, -64686.48, 0.00, 0.00, 0.00
243, -15564.73, -31312.24, -187500.02, -28964.84, -54691.83, -50411.05, -56461.98, -64680.54, 0.00, 0.00, 0.00
244, -15558.62, -31307.04, -187500.02, -28956.21, -54688.32, -50397.97, -56448.34, -64675.38, 0.00, 0.00, 0.00
245, -15562.45, -31312.42, -187500.02, -28959.95, -54695.48, -50406.11, -56456.84, -64683.22, 0.00, 0.00, 0.00
246, -15563.27, -31315.55, -187500.02, -28959.28, -54690.67, -50405.30, -56458.76, -64681.63, 0.00, 0.00, 0.00
247, -15571.61, -31322.01, -187500.02, -28967.05, -54685.71, -50406.56, -56460.97, -64683.29, 0.00, 0.00, 0.00
248, -15567.01, -31315.93, -187500.02, -28957.04, -54676.01, -50400.84, -56456.95, -64684.76, 0.00, 0.00, 0.00
249, -15561.33, -31308.11, -187500.02, -28941.69, -54686.43, -50393.70, -56447.56, -64672.00, 0.00, 0.00, 0.00
250, -15561.46, -31307.33, -187500.02, -28938.62, -54690.96, -50392.65, -56447.81, -64670.79, 0.00, 0.00, 0.00
251, -15569.69, -31316.51, -187500.02, -28949.98, -54690.07, -50402.94, -56456.79, -64677.99, 0.00, 0.00, 0.00
252, -15565.35, -31314.03, -187500.02, -28947.45, -54684.86, -50406.36, -56454.52, -64675.02, 0.01, 0.67, 0.69
253, -15570.58, -31320.36, -187500.02, -28948.39, -54687.59, -50403.36, -56457.75, -64674.73, 0.00, 0.00, 0.00
254, -15562.27, -31312.60, -187498.70, -28939.65, -54678.55, -50392.54, -56447.83, -64664.64, 0.00, 0.00, 0.00
255, -15559.29, -31306.68, -187483.16, -28939.32, -54678.33, -50392.41, -56450.02, -64666.68, 0.00, 0.00, 0.00
0, -15557.86, -31304.91, -187500.02, -28933.13, -54678.40, -50378.39, -56441.02, -64668.31, 0.00, 0.00, 0.00
1, -15554.27, -31303.73, -187500.02, -28925.88, -54677.68, -50377.01, -56441.37, -64671.26, 0.00, 0.00, 0.00
2, -15553.93, -31302.43, -187500.02, -28919.83, -54666.93, -50372.65, -56432.05, -64656.40, 0.00, 0.00, 0.00
3, -15559.18, -31307.75, -187472.14, -28925.84, -54674.62, -50376.52, -56441.64, -64668.04, 0.00, 0.00, 0.00
4, -15561.82, -31309.56, -187500.02, -28924.86, -54669.46, -50373.10, -56434.31, -64656.91, 0.00, 0.00, 0.00
5, -15564.26, -31311.96, -187500.02, -28923.49, -54668.90, -50378.39, -56432.70, -64653.29, 0.00, 0.00, 0.00
6, -15571.10, -31319.40, -187500.02, -28928.14, -54674.46, -50387.11, -56441.02, -64661.16, 0.00, 0.66, 0.70
7, -15580.64, -31333.88, -187404.00, -28940.41, -54682.82, -50394.55, -56447.32, -64670.79, 0.00, 0.00, 0.00
8, -15583.90, -31338.78, -187477.64, -28942.58, -54677.26, -50393.05, -56442.76, -64666.25, 0.00, 0.00, 0.00
9, -15581.07, -31332.14, -187500.02, -28935.92, -54667.78, -50391.67, -56444.84, -64671.42, 0.00, 0.00, 0.00
10, -15578.96, -31328.40, -187462.86, -28931.74, -54678.54, -50388.68, -56445.53, -64670.57, 0.00, 0.00, 0.00
11, -15584.87, -31332.67, -187346.64, -28936.72, -54698.47, -50390.17, -56448.73, -64671.91, 0.00, 0.00, 0.00
12, -15584.84, -31336.81, -187416.94, -28939.34, -54692.01, -50391.34, -56452.28, -64673.83, 0.00, 0.00, 0.00
13, -15583.68, -31341.37, -187492.30, -28937.93, -54683.47, -50392.68, -56450.20, -64671.71, 0.00, 0.00, 0.00
14, -15585.40, -31338.93, -187438.30, -28932.92, -54682.29, -50390.42, -56444.10, -64670.43, 0.00, 0.00, 0.00
15, -15592.69, -31347.07, -187312.97, -28941.33, -54686.83, -50399.41, -56452.73, -64675.62, 0.00, 0.00, 0.00
16, -15591.46, -31346.62, -187349.97, -28943.29, -54680.37, -50387.29, -56447.34, -64668.11, 0.00, 0.66, 0.71
17, -15589.92, -31351.83, -187450.53, -28944.86, -54682.11, -50393.77, -56452.28, -64672.56, 0.00, 0.00, 0.00
18, -15593.67, -31351.43, -187420.31, -28942.65, -54683.14, -50395.54, -56451.92, -64672.11, 0.00, 0.00, 0.00
19, -15595.17, -31351.07, -187312.95, -28942.85, -54681.84, -50395.96, -56447.23, -64666.97, 0.00, 0.00, 0.00
20, -15601.61, -31357.89, -187316.80, -28960.33, -54692.08, -50411.99, -56464.50, -64680.09, 0.00, 0.00, 0.00
21, -15591.50, -31346.73, -187427.39, -28942.36, -54677.77, -50395.11, -56448.57, -64664.38, 0.00, 0.00, 0.00
22, -15597.76, -31355.79, -187429.41, -28927.94, -54672.50, -50384.38, -56438.24, -64657.38, 0.00, 0.00, 0.00
23, -15613.61, -31374.09, -187313.42, -28938.60, -54682.67, -50398.53, -56450.16, -64668.00, 0.00, 0.00, 0.00
24, -15613.52, -31375.14, -187293.86, -28949.24, -54676.54, -50403.56, -56452.93, -64668.87, 0.00, 0.00, 0.00
25, -15611.67, -31372.17, -187421.19, -28950.07, -54669.19, -50400.97, -56450.82, -64670.79, 0.00, 0.00, 0.00
26, -15615.58, -31367.77, -187454.73, -28943.83, -54686.80, -50396.72, -56448.55, -64665.29, 0.01, 0.66, 0.70
27, -15610.91, -31363.95, -187387.23, -28943.16, -54687.77, -50399.63, -56451.61, -64663.71, 0.00, 0.00, 0.00
28, -15622.39, -31381.45, -187329.31, -28955.43, -54690.98, -50406.04, -56454.96, -64669.45, 0.00, 0.00, 0.00
29, -15627.20, -31384.11, -187437.59, -28952.04, -54688.39, -50400.77, -56449.53, -64666.07, 0.00, 0.00, 0.00
30, -15609.09, -31368.24, -187500.02, -28927.96, -54672.43, -50383.89, -56434.04, -64651.39, 0.00, 0.00, 0.00
31, -15622.91, -31383.57, -187447.78, -28936.72, -54684.91, -50393.05, -56442.58, -64664.04, 0.00, 0.00, 0.00
32, -15633.68, -31389.38, -187343.42, -28947.97, -54691.50, -50399.74, -56449.82, -64671.35, 0.00, 0.00, 0.00
33, -15628.58, -31385.40, -187450.69, -28944.64, -54685.20, -50390.75, -56442.71, -64664.58, 0.00, 0.00, 0.00
34, -15627.71, -31387.86, -187500.02, -28941.96, -54685.93, -50391.47, -56444.10, -64666.37, 0.00, 0.00, 0.00
35, -15616.63, -31376.80, -187489.16, -28928.16, -54672.79, -50382.11, -56435.79, -64655.86, 0.00, 0.00, 0.00
36, -15625.68, -31384.80, -187391.97, -28933.88, -54673.53, -50392.43, -56437.17, -64654.21, 0.01, 0.66, 0.69
37, -15639.47, -31398.75, -187449.81, -28944.46, -54676.99, -50390.48, -56443.29, -64656.57, 0.00, 0.00, 0.00
38, -15636.30, -31395.28, -187500.02, -28935.88, -54672.63, -50380.59, -56435.96, -64650.27, 0.00, 0.00, 0.00
39, -15621.43, -31380.11, -187500.02, -28918.89, -54662.13, -50373.23, -56424.90, -64639.01, 0.00, 0.00, 0.00
40, -15628.65, -31383.88, -187401.94, -28925.21, -54668.52, -50383.00, -56434.64, -64646.56, 0.00, 0.00, 0.00
41, -15638.42, -31392.35, -187439.83, -28934.02, -54676.66, -50388.50, -56440.32, -64652.06, 0.00, 0.00, 0.00
42, -15639.89, -31395.84, -187500.02, -28932.86, -54666.38, -50390.33, -56444.72, -64657.71, 0.00, 0.00, 0.00
43, -15640.92, -31396.89, -187500.02, -28926.33, -54665.52, -50385.61, -56443.00, -64660.53, 0.00, 0.00, 0.00
44, -15642.47, -31402.10, -187408.31, -28928.01, -54685.60, -50388.52, -56441.89, -64651.39, 0.00, 0.00, 0.00
45, -15648.21, -31407.55, -187399.50, -28936.66, -54685.57, -50398.62, -56451.21, -64656.46, 0.00, 0.00, 0.00
46, -15652.81, -31408.58, -187495.13, -28940.28, -54688.28, -50404.72, -56456.01, -64665.54, 0.00, 0.66, 0.70
47, -15650.27, -31406.23, -187487.50, -28931.96, -54684.26, -50394.40, -56445.39, -64659.53, 0.00, 0.00, 0.00
48, -15650.56, -31404.36, -187379.92, -28928.45, -54679.90, -50390.57, -56440.75, -64655.23, 0.00, 0.00, 0.00
49, -15656.77, -31411.29, -187342.23, -28934.38, -54679.27, -50389.57, -56436.97, -64652.29, 0.00, 0.00, 0.00
